timestamp;AFz;AF3;AF4;AF7;AF8;Pz;P3;P4
1715069287588;-23159.273;-26758.91;-22299.551;-23620.688;-23070.387;-9637.587;-11938.065;-8007.139
1715069287596;-22982.881;-26554.652;-22128.857;-23441.762;-22893.771;-9569.824;-11840.798;-7940.494
1715069287604;-22823.252;-26372.188;-21976.121;-23280.568;-22735.373;-9487.83;-11748.746;-7872.656
1715069287612;-22628.383;-26149.676;-21788.887;-23082.457;-22539.645;-9432.212;-11669.993;-7836.521
1715069287620;-22476.092;-25965.385;-21642.484;-22922.865;-22386.945;-9340.532;-11563.301;-7748.343
1715069287628;-22303.09;-25766.344;-21474.584;-22747.033;-22215.918;-9296.275;-11504.031;-7726.252
1715069287636;-22127.479;-25565.922;-21306.574;-22567.361;-22042.281;-9219.088;-11404.008;-7655.248
1715069287644;-21937.676;-25348.85;-21121.576;-22375.025;-21852.031;-9101.815;-11276.268;-7553.138
1715069287652;-21746.568;-25128.201;-20937.1;-22182.203;-21662.488;-9051.673;-11207.797;-7518.232
1715069287660;-21607.316;-24962.127;-20805.039;-22037.887;-21525.063;-8965.172;-11105.537;-7437.654
1715069287668;-21440.723;-24769.566;-20643.324;-21869.504;-21357.537;-8928.515;-11056.065;-7419.176
1715069287676;-21273.754;-24580.023;-20484.775;-21700.113;-21192.357;-8865.669;-10967.963;-7359.236
1715069287684;-21111.48;-24391.971;-20329.506;-21536.834;-21029.041;-8776.076;-10872.855;-7284.619
1715069287692;-20915.791;-24171.584;-20139.775;-21338.016;-20836.369;-8721.538;-10796.562;-7245.056
1715069287700;-20763.092;-23992.211;-19992.59;-21179.541;-20685.01;-8628.48;-10682.084;-7156.246
1715069287708;-20579.285;-23781.322;-19814.744;-20994.432;-20501.465;-8571.223;-10603.145;-7124.357
1715069287716;-20417.98;-23592.896;-19658.953;-20827.428;-20340.123;-8508.525;-10518.692;-7067.509
1715069287724;-20272.098;-23421.348;-19520.111;-20680.166;-20194.836;-8432.231;-10439.604;-7003.918
1715069287732;-20083.002;-23206.398;-19337.162;-20491.033;-20005.367;-8390.732;-10378.92;-6970.316
1715069287740;-19932.502;-23026.84;-19192.359;-20333.342;-19857.436;-8284.449;-10255.128;-6868.951
1715069287748;-19763.074;-22836.066;-19028.783;-20161.793;-19688.793;-8240.007;-10194.107;-6848.909
1715069287756;-19603.559;-22649.355;-18875.449;-19996.24;-19529.76;-8173.063;-10106.377;-6787.442
1715069287764;-19437.67;-22460.371;-18718.801;-19828.789;-19365.959;-8079.968;-10003.969;-6710.104
1715069287772;-19260.123;-22260.361;-18548.779;-19650.236;-19189.529;-8049.086;-9949.096;-6692.819
1715069287794;-19102.99;-22073.537;-18396.043;-19488.371;-19033.662;-7934.458;-9819.009;-6582.364
1715069287802;-18942.244;-21886.676;-18240.549;-19324.57;-18872.916;-7890.538;-9764.321;-6557.591
1715069287810;-18791.221;-21713.414;-18098.467;-19171.461;-18721.67;-7833.131;-9686.724;-6506.331
1715069287818;-18643.514;-21541.9;-17953.291;-19017.012;-18573.404;-7754.453;-9596.385;-6441.437
1715069287826;-18456.689;-21332.764;-17770.379;-18827.543;-18387.438;-7701.963;-9520.725;-6401.353
1715069287834;-18317.811;-21164.604;-17637.238;-18686.354;-18250.682;-7614.903;-9420.216;-6314.74
1715069287842;-18162.094;-20984.672;-17489.344;-18528.998;-18095.934;-7572.658;-9369.701;-6292.909
1715069287850;-18000.119;-20798.52;-17335.006;-18361.77;-17934.219;-7498.041;-9269.715;-6223.47
1715069287858;-17842.092;-20615.943;-17181.076;-18198.564;-17775.633;-7401.742;-9163.692;-6141.104
1715069287866;-17683.543;-20431.43;-17025.359;-18036.701;-17617.047;-7380.545;-9119.734;-6129.481
1715069287874;-17558.783;-20285.285;-16907.043;-17910.115;-17494;-7303.246;-9030.886;-6052.479
1715069287882;-17381.273;-20082.816;-16733.967;-17729.998;-17319.135;-7239.133;-8954.853;-6012.134
1715069287890;-17208.568;-19886.457;-16569.756;-17554.463;-17145.91;-7162.579;-8857.287;-5939.156
1715069287898;-17076.992;-19732.602;-16444.848;-17421.059;-17015.375;-7095.113;-8778.907;-5886.145
1715069287906;-16906.299;-19536.055;-16278.028;-17249.174;-16844.311;-7050.149;-8713.38;-5857.758
1715069287914;-16775.168;-19381.047;-16154.685;-17114.877;-16713.143;-6962.53;-8616.671;-5772.188
1715069287922;-16613.527;-19196.607;-15998.558;-16949.064;-16553.066;-6920.472;-8560.531;-5752.295
1715069287930;-16449.84;-19010.381;-15840.643;-16781.203;-16389.564;-6849.431;-8470.006;-5684.942
1715069287938;-16316.474;-18852.986;-15713.87;-16645.49;-16258.694;-6770.044;-8377.656;-5618.036
1715069287946;-16156.286;-18667.877;-15556.999;-16479.344;-16099.326;-6736.368;-8323.006;-5600.564
1715069287954;-16024.97;-18515.104;-15433.394;-16349.032;-15968.494;-6650.053;-8226.447;-5517.192
1715069287962;-15871.45;-18338.672;-15285.201;-16194.061;-15815.459;-6600.544;-8176.304;-5483.59
1715069287970;-15721.396;-18164.738;-15139.543;-16042.366;-15666.149;-6531.701;-8089.431;-5413.145
1715069287978;-15601.926;-18024.184;-15024.767;-15918.91;-15546.866;-6483.868;-8033.328;-5375.892
1715069287983;-15430.227;-17827.973;-14856.16;-15741.885;-15374.571;-6446.354;-7968.657;-5356.521
1715069287991;-15270.226;-17644.838;-14704.689;-15579.053;-15214.645;-6331.466;-7837.862;-5247.295
1715069287999;-15114.285;-17468.297;-14554.3;-15421.994;-15059.561;-6286.912;-7778.63;-5220.883
1715069288007;-14987.737;-17318.055;-14435.388;-15291.423;-14935.955;-6239.153;-7712.319;-5171.187
1715069288015;-14865.361;-17173.699;-14317.259;-15164.688;-14813.989;-6171.353;-7643.178;-5116.463
1715069288023;-14698.729;-16985.572;-14155.768;-14995.896;-14646.612;-6140.284;-7590.614;-5100.109
1715069288031;-14584.251;-16848.334;-14045.499;-14876.127;-14533.4;-6062.649;-7494.651;-5025.715
1715069288039;-14435.798;-16677.119;-13903.156;-14728.196;-14384.762;-6018.095;-7437.021;-4999.936
1715069288047;-14274.12;-16497.076;-13748.594;-14564.581;-14224.946;-5942.918;-7348.47;-4928.671
1715069288055;-14147.982;-16350.635;-13630.092;-14435.724;-14100.224;-5874.336;-7272.363;-4867.017
1715069288063;-13998.561;-16176.216;-13482.757;-14281.198;-13950.467;-5852.729;-7233.359;-4857.108
1715069288071;-13873.13;-16028.993;-13361.424;-14153.905;-13824.254;-5763.807;-7130.69;-4771.501
1715069288079;-13728.961;-15866.31;-13223.142;-14009.215;-13681.725;-5735.681;-7085.949;-4766.993
1715069288087;-13593.36;-15704.93;-13092.272;-13869.106;-13545.714;-5671.419;-7003.359;-4706.085
1715069288095;-13460.89;-15552.715;-12968.22;-13735.741;-13413.131;-5582.199;-6907.62;-4628.114
1715069288103;-13313.032;-15386.119;-12823.381;-13584.494;-13267.175;-5566.627;-6875.843;-4623.16
1715069288111;-13190.918;-15243.553;-12704.544;-13458.394;-13145.022;-5481.355;-6778.166;-4541.948
1715069288119;-13046.712;-15077.554;-12564.138;-13312.325;-13002.529;-5439.706;-6723.702;-4520.9
1715069288127;-12918.077;-14926.978;-12440.309;-13179.406;-12874.491;-5387.105;-6660.782;-4469.343
1715069288135;-12793.541;-14781.095;-12323;-13053.79;-12751.259;-5308.948;-6570.294;-4403.144
1715069288143;-12632.72;-14597.252;-12164.861;-12889.988;-12590.811;-5264.394;-6509.572;-4372.746
1715069288151;-12513.921;-14459.826;-12052.432;-12768.507;-12471.154;-5185.791;-6420.054;-4289.858
1715069288159;-12379.326;-14303.811;-11920.557;-12629.889;-12336.56;-5155.727;-6372.481;-4279.763
1715069288167;-12253.672;-14154.277;-11798.404;-12501.031;-12211.613;-5111.694;-6314.665;-4238.151
1715069288173;-12134.872;-14017.857;-11684.969;-12379.735;-12092.255;-5040.951;-6238.371;-4174.933
1715069288181;-11987.611;-13853.274;-11545.755;-12232.55;-11946.745;-5012.229;-6189.645;-4156.008
1715069288189;-11875.369;-13721.101;-11441.298;-12119.264;-11835.061;-4933.141;-6100.908;-4082.844
1715069288197;-11747.554;-13573.617;-11317.097;-11988.692;-11707.544;-4906.245;-6064.177;-4075.281
1715069288205;-11604.801;-13410.188;-11177.063;-11844.002;-11564.382;-4846.23;-5983.934;-4016.347
1715069288213;-11470.728;-13255.291;-11046.641;-11706.315;-11431.947;-4759.841;-5889.758;-3943.741
1715069288221;-11331.923;-13095.141;-10908.991;-11562.966;-11294.708;-4736.222;-5851.202;-3934.391
1715069288229;-11223.965;-12966.655;-10809.563;-11451.319;-11188.276;-4656.65;-5758.032;-3854.521
1715069288237;-11092.462;-12819.655;-10685.25;-11320.412;-11056.363;-4627.369;-5716.57;-3848.374
1715069288245;-10966.025;-12674.22;-10563.471;-11191.442;-10929.22;-4575.551;-5648.583;-3798.567
1715069288253;-10849.685;-12536.57;-10450.296;-11073.5;-10813.177;-4504.174;-5577.654;-3732.443
1715069288261;-10703.317;-12370.311;-10310.337;-10927.655;-10667.22;-4474.334;-5527.697;-3715.865
1715069288269;-10607.392;-12253.448;-10220.632;-10826.29;-10572.188;-4397.109;-5435.012;-3640.428
1715069288277;-10473.729;-12102.798;-10092.072;-10692.291;-10438.114;-4362.315;-5394.481;-3622.1
1715069288285;-10349.304;-11957.139;-9970.069;-10562.055;-10314.584;-4308.224;-5328.469;-3571.138
1715069288293;-10234.825;-11824.593;-9860.247;-10444.745;-10200.329;-4237.704;-5252.324;-3513.843
1715069288301;-10107.606;-11680.462;-9739.995;-10317.266;-10072.775;-4234.761;-5228.371;-3521.331
1715069288309;-9999.35;-11552.274;-9633.34;-10204.501;-9965.896;-4141.442;-5124.696;-3432.259
1715069288317;-9863.823;-11396.185;-9499.714;-10064.021;-9831.004;-4106.983;-5075.522;-3414.005
1715069288325;-9734.594;-11249.185;-9376.928;-9934.231;-9703.562;-4052.296;-5006.008;-3357.083
1715069288333;-9620.376;-11115.633;-9267.144;-9819.679;-9589.382;-3980.212;-4936.494;-3296.621
1715069288341;-9494.2;-10971.613;-9144.023;-9690.039;-9463.541;-3964.976;-4903.451;-3295.913
1715069288349;-9394.81;-10854.49;-9050.369;-9588.376;-9363.74;-3887.005;-4814.304;-3219.731
1715069288357;-9278.432;-10721.907;-8938.201;-9470.135;-9248.592;-3859.662;-4776.12;-3206.618
1715069288359;-9164.14;-10588.058;-8826.74;-9352.118;-9135.306;-3814.213;-4711.002;-3160.909
1715069288367;-9063.631;-10471.53;-8734.055;-9251.423;-9034.909;-3757.328;-4648.79;-3112.368
1715069288375;-8950.122;-10340.512;-8624.866;-9136.572;-8921.81;-3755.465;-4629.12;-3123.134
1715069288383;-8829.981;-10200.664;-8507.52;-9011.962;-8802.675;-3660.88;-4525.333;-3027.208
1715069288391;-8685.067;-10036.453;-8366.928;-8863.472;-8656.718;-3609.21;-4459.023;-2995.282
1715069288399;-8591.786;-9923.279;-8277.893;-8767.396;-8564.703;-3576.837;-4414.395;-2966.56
1715069288407;-8499.138;-9815.879;-8189.045;-8673.556;-8472.986;-3518.388;-4357.137;-2916.344
1715069288415;-8354.709;-9656.734;-8048.341;-8526.779;-8327.812;-3490.299;-4302.562;-2898.052
1715069288423;-8264.407;-9549.819;-7962.51;-8436.739;-8237.697;-3424.659;-4235.133;-2830.177
1715069288431;-8140.69;-9403.862;-7840.768;-8310.489;-8114.167;-3395.304;-4202.91;-2817.214
1715069288439;-8023.754;-9270.311;-7727.333;-8187.22;-7998.832;-3347.658;-4138.76;-2769.306
1715069288447;-7940.009;-9169.243;-7650.033;-8101.724;-7915.981;-3284.365;-4073.531;-2718.605
1715069288455;-7814.393;-9031.222;-7529.52;-7978.156;-7791.668;-3265.105;-4037.47;-2710.819
1715069288463;-7724.688;-8924.976;-7442.571;-7885.099;-7701.33;-3200.658;-3959.946;-2642.982
1715069288471;-7612.146;-8792.169;-7334.649;-7770.546;-7588.751;-3183.149;-3933.087;-2645.739
1715069288479;-7496.998;-8659.81;-7223.263;-7649.734;-7475.54;-3138.743;-3874.227;-2604.313
1715069288487;-7391.609;-8538.738;-7124.469;-7541.217;-7372.759;-3060.773;-3794.692;-2532.415
1715069288495;-7255.599;-8387.23;-6990.731;-7407.516;-7236.265;-3031.977;-3750.473;-2515.54
1715069288503;-7178.821;-8295.104;-6918.05;-7329.658;-7159.449;-2972.744;-3683.492;-2457.76
1715069288511;-7073.32;-8173.622;-6816.723;-7219.501;-7055.066;-2944.879;-3645.942;-2450.757
1715069288519;-6940.477;-8023.567;-6687.79;-7085.018;-6923.229;-2869.293;-3555.305;-2379.604
1715069288527;-6864.891;-7932.894;-6615.333;-7010.847;-6846.189;-2825.633;-3515.482;-2340.041
1715069288535;-6747.395;-7798.597;-6502.233;-6890.334;-6728.955;-2814.978;-3488.176;-2338.402
1715069288543;-6655.306;-7691.234;-6414.242;-6793.961;-6638.021;-2735.183;-3398.322;-2259.985
1715069288560;-6546.267;-7563.867;-6308.369;-6681.904;-6528.385;-2705.827;-3358.61;-2247.617
1715069288568;-6451.532;-7452.257;-6216.615;-6586.648;-6433.837;-2675.317;-3314.316;-2220.05
1715069288576;-6370.172;-7354.841;-6137.527;-6501.6;-6354.787;-2626.292;-3259.629;-2181.53
1715069288584;-6242.32;-7212.497;-6014.854;-6372.035;-6227.568;-2605.505;-3223.866;-2172.813
1715069288592;-6159.171;-7115.64;-5936.883;-6290.339;-6143.525;-2536.029;-3150.739;-2099.164
1715069288600;-6044.358;-6984.472;-5825.944;-6171.763;-6027.78;-2503.507;-3108.531;-2083.406
1715069288608;-5944.446;-6868.69;-5729.198;-6068.945;-5930.438;-2460.778;-3047.623;-2041.72
1715069288616;-5842.41;-6752.685;-5631.373;-5965.27;-5828.887;-2398.752;-2982.728;-1983.531
1715069288624;-5722.195;-6616.749;-5514.808;-5842.932;-5709.343;-2379.939;-2947.077;-1978.315
1715069288632;-5636.774;-6520.338;-5432.74;-5756.169;-5622.916;-2317.205;-2869.07;-1915.321
1715069288640;-5540.848;-6406.382;-5339.124;-5660.131;-5526.282;-2308.339;-2867.468;-1920.462
1715069288648;-5451.217;-6299.242;-5254.82;-5568.377;-5439.669;-2275.519;-2815.09;-1888.126
1715069288656;-5384.311;-6218.739;-5187.951;-5498.156;-5372.204;-2230.48;-2759.993;-1847.222
1715069288664;-5270.019;-6088.093;-5076.789;-5380.325;-5258.769;-2212.823;-2729.967;-1839.772
1715069288672;-5195.178;-5999.394;-5008.28;-5303.584;-5183.667;-2149.492;-2657.548;-1776.256
1715069288680;-5102.381;-5894.49;-4920.028;-5211.383;-5090.982;-2133.772;-2635.308;-1777.411
1715069288688;-4968.904;-5743.615;-4787.892;-5075.038;-4957.579;-2062.395;-2546.683;-1704.954
1715069288696;-4885.346;-5644.933;-4708.432;-4989.393;-4874.952;-2008.788;-2485.774;-1659.803
1715069288704;-4803.017;-5545.69;-4628.562;-4903.115;-4793.406;-2017.245;-2485.663;-1677.722
1715069288712;-4737.116;-5464.852;-4564.114;-4833.713;-4728.474;-1952.201;-2424.046;-1611.188
1715069288720;-4623.458;-5339.198;-4453.808;-4719.57;-4614.666;-1922.958;-2391.227;-1595.989
1715069288728;-4527.122;-5229.674;-4363.842;-4623.458;-4518.181;-1888.499;-2339.668;-1564.138
1715069288736;-4447.55;-5136.058;-4286.952;-4544.481;-4436.821;-1833.476;-2282.523;-1518.875
1715069288744;-4337.132;-5011.074;-4179.366;-4432.5;-4326.403;-1827.106;-2259.538;-1522.899
1715069288748;-4277.341;-4939.772;-4125.573;-4367.978;-4268.586;-1770.742;-2193.265;-1461.767
1715069288756;-4182.905;-4829.615;-4031.174;-4270.375;-4174.858;-1750.29;-2164.468;-1453.236
1715069288764;-4093.982;-4729.033;-3947.057;-4183.464;-4086.718;-1723.468;-2120.919;-1421.943
1715069288772;-4013.33;-4634;-3872.663;-4104.711;-4007.071;-1660.399;-2057.031;-1364.946
1715069288780;-3902.726;-4510.879;-3765.598;-3991.835;-3895.946;-1639.053;-2023.727;-1359.47
1715069288788;-3835.41;-4428.96;-3698.543;-3918.074;-3828.369;-1575.872;-1954.101;-1292.601
1715069288796;-3758.632;-4338.398;-3626.16;-3842.264;-3753.714;-1573.339;-1939.125;-1303.293
1715069288804;-3658.161;-4225.224;-3529.266;-3741.384;-3652.871;-1541.004;-1897.328;-1270.436
1715069288812;-3562.234;-4117.154;-3433.116;-3640.391;-3555.939;-1471.713;-1829.118;-1210.198
1715069288820;-3459.379;-4001.632;-3335.476;-3537.499;-3454.164;-1457.296;-1798.123;-1209.229
1715069288828;-3405.66;-3934.242;-3286.973;-3480.65;-3401.153;-1407.936;-1741.35;-1157.112
1715069288836;-3340.729;-3853.217;-3224.052;-3412.217;-3338.456;-1412.556;-1735.65;-1174.025
1715069288844;-3231.801;-3734.343;-3117.807;-3301.911;-3228.672;-1354.329;-1662.895;-1121.238
1715069288852;-3151.894;-3644.75;-3041.923;-3222.525;-3149.472;-1296.513;-1604.445;-1072.213
1715069288860;-3052.987;-3531.613;-2944.805;-3122.576;-3051.087;-1289.547;-1580.194;-1075.268
1715069288868;-3003.143;-3463.44;-2895.705;-3066.51;-2999.492;-1236.275;-1522.452;-1017.861
1715069288876;-2910.942;-3361.441;-2808.31;-2974.272;-2908.371;-1215.637;-1497.529;-1011.714
1715069288884;-2812.855;-3248.304;-2714.917;-2872.497;-2811.514;-1165.643;-1435.392;-960.901
1715069288892;-2754.107;-3176.592;-2659.187;-2814.755;-2753.772;-1123.995;-1395.196;-924.245
1715069288900;-2649.575;-3061.481;-2554.879;-2709.292;-2649.017;-1111.366;-1368.411;-924.692
1715069288908;-2595.074;-2995.804;-2503.469;-2651.699;-2593.547;-1058.094;-1309.887;-868.142
1715069288916;-2511.628;-2901.927;-2424.158;-2569.035;-2510.734;-1039.915;-1286.864;-867.136
1715069288924;-2424.084;-2801.009;-2340.339;-2480.596;-2422.146;-1013.055;-1244.843;-836.663
1715069288932;-2375.32;-2741.776;-2295.151;-2430.864;-2376.921;-979.006;-1209.192;-810.511
1715069288937;-2280.064;-2634.898;-2201.572;-2333.485;-2280.437;-967.905;-1184.083;-810.213
1715069288945;-2189.465;-2529.733;-2112.314;-2239.831;-2189.018;-878.423;-1087.561;-718.385
1715069288953;-2117.641;-2444.238;-2040.155;-2164.505;-2117.604;-871.234;-1077.875;-724.643
1715069288961;-2059.75;-2375.469;-1986.139;-2104.417;-2059.415;-856.929;-1053.624;-712.76
1715069288969;-1980.364;-2284.236;-1912.192;-2025.329;-1981.78;-801.831;-997.223;-663.698
1715069288977;-1872.07;-2163.835;-1805.946;-1916.96;-1874.79;-779.219;-961.311;-649.504
1715069288985;-1820.698;-2104.305;-1758.784;-1864.992;-1823.418;-731.796;-909.567;-598.766
1715069288993;-1743.771;-2014.898;-1685.061;-1788.251;-1748.614;-721.142;-887.625;-603.721
1715069289001;-1671.203;-1930.818;-1616.925;-1714.304;-1676.679;-693.724;-848.547;-573.136
1715069289009;-1617.707;-1868.121;-1565.553;-1660.995;-1622.774;-658.333;-819.378;-539.869
1715069289017;-1531.914;-1770.295;-1482.107;-1572.706;-1537.055;-658.818;-802.39;-548.847
1715069289025;-1464.598;-1690.835;-1418.553;-1501.329;-1469.664;-596.792;-726.618;-481.457
1715069289033;-1378.804;-1592.673;-1335.368;-1414.307;-1384.243;-574.514;-709.072;-480.264
1715069289041;-1311.079;-1513.921;-1269.095;-1343.898;-1315.474;-545.83;-670.254;-452.586
1715069289049;-1245.961;-1435.578;-1205.727;-1275.986;-1250.505;-496.395;-618.584;-400.767
1715069289057;-1162.812;-1341.85;-1125.298;-1192.354;-1168.177;-496.879;-606.589;-411.868
1715069289065;-1127.943;-1299.083;-1092.702;-1158.156;-1133.494;-464.059;-566.17;-374.913
1715069289073;-1059.771;-1222.901;-1027.361;-1088.567;-1067.519;-456.944;-554.509;-382.289
1715069289081;-973.679;-1126.006;-946;-1002.14;-981.167;-413.544;-498.593;-338.927
1715069289089;-888.146;-1026.988;-861.026;-913.925;-894.032;-340.082;-426.21;-270.195
1715069289097;-785.105;-916.31;-764.094;-812.821;-791.103;-329.614;-397.898;-271.313
1715069289105;-755.526;-877.865;-737.57;-779.517;-763.945;-294.782;-358.783;-231.825
1715069289113;-696.331;-806.004;-679.53;-717.789;-704.154;-296.57;-361.13;-246.279
1715069289121;-635.311;-730.827;-617.169;-654.161;-642.464;-278.205;-336.207;-220.537
1715069289142;-582.412;-667.423;-566.84;-600.778;-590.347;-235.587;-297.651;-183.918
1715069289150;-494.83;-572.689;-480.376;-511.967;-503.734;-230.297;-274.032;-186.861
1715069289158;-461.34;-526.682;-449.605;-475.943;-469.685;-180.751;-222.251;-135.675
1715069289166;-371.747;-429.153;-364.408;-387.356;-381.097;-159.964;-197.627;-128.187
1715069289174;-286.4;-335.015;-283.048;-302.978;-295.825;-123.754;-141.412;-90.487
1715069289182;-246.428;-284.351;-244.826;-262.596;-255.741;-87.842;-116.9;-59.12
1715069289190;-162.683;-188.835;-160.97;-174.269;-171.289;-84.266;-104.196;-63.33
1715069289198;-130.609;-147.559;-134.222;-142.045;-140.965;-48.801;-60.871;-23.73
1715069289206;-63.665;-71.675;-70.967;-75.363;-77.151;-33.192;-41.537;-23.097
1715069289214;1.304;4.135;-4.992;-6.966;-10.356;-8.643;-4.21;4.992
1715069289222;58.338;70.967;49.546;52.974;47.721;30.659;42.059;42.431
1715069289230;145.808;167.638;132.993;140.294;135.899;32.522;56.811;27.642
1715069289238;179;212.714;166.483;175.834;169.463;88.289;111.423;82.627
1715069289246;250.414;291.243;234.582;245.385;239.871;99.838;132.918;83.484
1715069289254;327.863;374.205;307.411;323.281;315.681;131.465;178.888;116.043
1715069289262;364.445;418.946;343.621;363.067;351.816;171.438;215.545;153.445
1715069289270;431.016;499.077;411.98;432.469;419.207;162.199;216.104;135.638
1715069289278;464.804;543.11;444.986;468.567;454.374;205.934;263.564;183.955
1715069289286;546.5;632.89;523.143;550.933;535.324;230.931;282.601;194.721
1715069289294;619.926;712.909;592.47;626.37;608.303;262.745;330.545;222.921
1715069289302;664.368;764.318;633.635;669.695;653.155;305.176;373.647;260.323
1715069289310;726.655;835.359;694.841;732.131;713.766;294.559;376.366;241.92
1715069289318;771.508;889.674;735.894;775.866;758.506;350.103;433.959;302.866
1715069289326;826.12;955.351;787.377;833.236;811.666;347.905;438.392;286.065
1715069289331;873.581;1012.459;836.7;884.533;860.058;352.822;449.494;299.811
1715069289339;914.298;1061.223;875.071;926.815;900.887;400.841;500.381;339.597
1715069289347;992.79;1148.209;950.918;1006.015;978.112;404.753;514.574;335.09
1715069289355;1026.466;1190.081;981.838;1041.889;1013.54;442.006;552.759;379.57
1715069289363;1085.55;1258.999;1040.66;1102.09;1072.623;446.364;558.011;372.604
1715069289371;1158.901;1339.689;1111.068;1175.664;1144.819;480.935;605.136;410.9
1715069289379;1199.394;1390.204;1150.37;1218.356;1186.84;520.796;648.312;443.123
1715069289387;1273.193;1471.601;1222.864;1294.427;1260.191;519.864;661.165;433.661
1715069289395;1305.267;1509.86;1251.25;1323.894;1290.962;561.215;703.633;481.121
1715069289403;1364.611;1576.282;1306.832;1382.232;1348.63;568.703;716.448;469.573
1715069289411;1422.875;1640.208;1360.625;1442.656;1405.701;592.247;750.46;495.203
1715069289419;1451.485;1677.871;1390.688;1474.321;1434.46;622.943;768.9;526.309
1715069289427;1515.932;1749.843;1454.912;1537.576;1499.839;615.716;775.009;510.402
1715069289435;1550.242;1792.684;1487.806;1572.296;1534.41;659.786;827.089;559.464
1715069289443;1617.409;1869.239;1555.122;1644.976;1602.247;675.023;841.208;558.533
1715069289451;1671.053;1928.993;1603.402;1699.403;1656.525;689.961;860.356;576.34
1715069289459;1699.887;1966.655;1630.858;1728.833;1685.396;730.343;894.628;616.908
1715069289467;1772.232;2048.872;1702.16;1801.737;1756.214;730.343;909.753;605.583
1715069289475;1824.759;2104.864;1748.353;1855.604;1807.585;787.228;975.43;669.584
1715069289483;1872.629;2159.625;1796.708;1904.294;1855.53;782.609;978.485;652.447
1715069289491;1908.28;2204.962;1832.992;1940.765;1890.995;781.529;983.253;657.737
1715069289499;1933.649;2240.315;1857.318;1967.14;1917.034;811.294;1012.31;681.616
1715069289507;2021.007;2334.453;1943.26;2054.051;2004.765;830.479;1043.119;685.938
1715069289515;2051.145;2368.912;1966.059;2084.375;2034.232;872.426;1088.865;734.925
1715069289511;2099.089;2424.456;2011.731;2133.138;2082.4;871.159;1094.192;724.085
1715069289519;2151.728;2487.115;2066.717;2189.39;2133.623;894.144;1127.608;749.491
1715069289527;2179.258;2518.594;2091.117;2216.287;2160.743;925.25;1149.215;778.437
1715069289535;2232.566;2577.528;2142.452;2268.329;2214.573;905.506;1136.251;753.924
1715069289543;2265.871;2618.395;2172.925;2302.341;2246.76;957.251;1193.509;809.431
1715069289551;2321.713;2682.135;2229.437;2361.35;2303.608;968.911;1212.396;802.018
1715069289559;2358.742;2724.715;2265.125;2398.826;2340.19;976.846;1228.34;816.286
1715069289567;2370.775;2747.104;2276.86;2411.827;2352.558;1002.438;1251.176;842.735
1715069289575;2428.554;2808.534;2333.298;2471.358;2409.332;998.937;1255.721;831.187
1715069289583;2474.859;2859.943;2375.208;2514.943;2455.339;1054.518;1314.022;891.313
1715069289591;2545.007;2938.472;2443.194;2584.234;2524.406;1064.911;1330.711;887.029
1715069289599;2591.685;2990.998;2485.29;2632.104;2570.413;1080.521;1355.074;902.414
1715069289607;2616.719;3024.6;2512.112;2660.975;2598.167;1109.093;1375.228;931.434
1715069289615;2655.089;3070.719;2552.681;2701.543;2635.233;1083.165;1358.874;896.975
1715069289623;2686.866;3109.053;2582.334;2733.506;2666.153;1129.098;1399.703;947.304
1715069289631;2744.868;3171.936;2637.282;2791.174;2724.305;1141.578;1418.144;947.49
1715069289639;2784.058;3216.788;2672.784;2829.991;2762.191;1158.044;1452.118;963.546
1715069289647;2795.123;3234.073;2684.183;2843.663;2775.006;1174.323;1457.371;984.52
1715069289655;2844.52;3289.171;2732.277;2893.955;2823.435;1160.391;1450.889;961.386
1715069289663;2896.525;3347.322;2782.047;2946.258;2875.999;1223.348;1519.062;1027.1
1715069289671;2946.146;3400.668;2828.688;2995.469;2922.975;1228.75;1526.996;1021.288
1715069289679;2969.839;3429.428;2851.263;3020.242;2946.593;1224.466;1535.043;1025.945
1715069289687;2979.45;3447.197;2861.023;3032.722;2956.39;1244.88;1552.478;1044.683
1715069289695;3028.549;3505.126;2909.712;3081.709;3005.564;1231.32;1547.262;1025.125
1715069289716;3063.157;3542.602;2943.948;3118.18;3040.023;1283.176;1602.694;1078.844
1715069289724;3113.113;3596.656;2991.483;3168.844;3091.581;1291.074;1614.504;1071.356
1715069289732;3149.696;3640.577;3025.979;3206.581;3127.195;1307.651;1632.124;1094.081
1715069289740;3166.534;3664.866;3043.488;3225.245;3142.543;1331.493;1649.41;1113.974
1715069289748;3215.559;3718.845;3088.303;3271.848;3192.09;1317.449;1648.217;1092.33
1715069289756;3237.091;3747.568;3108.457;3295.206;3214.739;1359.656;1692.809;1140.945
1715069289764;3295.317;3813.431;3169.365;3356.635;3273.189;1367.517;1698.323;1135.431
1715069289772;3341.325;3863.2;3214.143;3401.972;3316.812;1384.281;1727.939;1157.448
1715069289780;3352.612;3876.649;3225.468;3415.495;3328.547;1413.748;1748.204;1178.235
1715069289788;3391.467;3920.607;3262.348;3453.605;3367.253;1399.294;1739.748;1155.101
1715069289796;3414.936;3952.906;3282.428;3478.862;3392.51;1443.401;1791.79;1204.759
1715069289804;3468.581;4010.61;3334.507;3532.246;3445.074;1455.061;1806.058;1203.939
1715069289812;3511.235;4058.443;3376.864;3575.31;3487.58;1468.882;1825.504;1223.125
1715069289820;3521.815;4071.631;3384.613;3586.002;3496.632;1489.818;1842.082;1244.582
1715069289828;3578.7;4135.147;3439.859;3643.073;3553.331;1484.342;1843.795;1230.873
1715069289836;3591.776;4155.151;3453.828;3660.545;3566.891;1517.013;1878.701;1270.175
1715069289844;3609.583;4175.752;3469.586;3676.005;3583.655;1498.945;1867.786;1240.633
1715069289852;3659.353;4229.173;3519.803;3724.694;3635.771;1526.14;1901.761;1268.871
1715069289860;3707.968;4283.264;3566.295;3776.178;3683.12;1586.601;1954.921;1323.074
1715069289868;3741.309;4319.884;3594.086;3807.768;3715.94;1560.338;1937.076;1286.827
1715069289876;3752.895;4337.579;3606.938;3821.664;3727.935;1584.925;1962.408;1320.206
1715069289884;3784.709;4373.454;3640.726;3855.936;3760.271;1584.925;1962.632;1311.526
1715069289892;3818.162;4413.538;3672.652;3891.848;3793.053;1594.313;1984.127;1326.501
1715069289900;3830.157;4433.133;3685.877;3904.626;3806.651;1617.894;2001.636;1345.277
1715069289905;3884.546;4487.746;3736.69;3955.29;3862.791;1609.065;1995.526;1329.854
1715069289913;3896.728;4502.125;3746.674;3966.428;3872.365;1645.796;2037.734;1375.154
1715069289921;3926.791;4539.602;3775.582;3999.844;3901.608;1643.151;2042.651;1364.946
1715069289929;3954.47;4573.167;3802.031;4029.945;3929.846;1644.902;2047.271;1372.136
1715069289937;3974.773;4594.811;3822.93;4051.439;3951.788;1680.031;2079.755;1402.609
1715069289945;4029.237;4654.303;3877.282;4104.935;4004.873;1678.579;2086.014;1391.47
1715069289953;4039.034;4669.13;3884.174;4114.136;4014.596;1705.848;2114.363;1426.153
1715069289961;4057.847;4692.748;3900.677;4134.178;4033.074;1689.382;2099.909;1401.082
1715069289969;4097.074;4734.099;3936.663;4171.543;4071.444;1701.191;2120.025;1419.559
1715069289977;4123.673;4769.526;3965.497;4202.016;4099.31;1745.298;2157.763;1459.271
1715069289985;4153.587;4804.619;3997.497;4233.83;4131.049;1719.594;2134.889;1431.555
1715069289993;4157.871;4810.989;4000.626;4238.151;4133.508;1750.067;2171.546;1465.343
1715069290001;4195.683;4848.465;4036.091;4273.988;4171.916;1757.108;2175.719;1458.563
1715069290009;4226.863;4884.787;4066.08;4308.633;4204.624;1762.956;2190.731;1467.764
1715069290017;4241.802;4905.276;4079.528;4322.305;4218.929;1791.865;2222.508;1491.904
1715069290025;4294.067;4961.826;4129.633;4373.714;4269.22;1784.153;2226.68;1475.997
1715069290033;4292.167;4962.943;4128.143;4375.428;4268.698;1809.336;2241.321;1508.966
1715069290041;4322.641;4997.663;4157.871;4404.299;4299.73;1810.566;2242.96;1496.486
1715069290049;4356.131;5031.973;4187.226;4436.076;4331.022;1827.441;2269.745;1513.027
1715069290057;4360.154;5040.728;4193.038;4440.807;4334.375;1841.225;2276.264;1533.069
1715069290065;4400.834;5085.804;4234.277;4481.71;4375.018;1821.369;2267.025;1505.502
1715069290073;4428.215;5117.878;4258.565;4510.768;4403.591;1876.578;2322.123;1563.057
1715069290081;4443.191;5138.479;4273.988;4527.233;4417.524;1861.192;2304.353;1541.413
1715069290089;4451.088;5147.867;4282.407;4537.143;4424.863;1850.985;2298.653;1537.763
1715069290095;4467.219;5168.952;4299.544;4553.944;4442.93;1888.61;2330.057;1571.551
1715069290103;4495.904;5199.5;4325.509;4579.015;4470.274;1853.816;2304.316;1535.825
1715069290111;4507.191;5215.257;4336.946;4595.369;4482.53;1893.565;2346.113;1581.721
1715069290119;4550.144;5261.637;4379.563;4639.514;4526.973;1897.998;2348.982;1574.978
1715069290127;4576.706;5291.291;4406.273;4664.175;4552.826;1902.729;2360.605;1585.893
1715069290135;4587.173;5305.819;4414.357;4675.127;4563.816;1934.059;2390.37;1615.062
1715069290143;4616.678;5334.802;4439.056;4700.459;4590.75;1911.521;2376.363;1585.297
1715069290151;4616.827;5339.235;4438.497;4703.44;4590.563;1944.788;2407.208;1623.742
1715069290159;4644.953;5370.565;4468.262;4733.205;4619.435;1939.498;2403.147;1606.42
1715069290167;4665.926;5394.22;4489.608;4755.892;4642.494;1942.441;2414.882;1614.28
1715069290175;4675.426;5407.818;4495.419;4764.199;4650.206;1966.506;2437.83;1637.489
1715069290183;4712.343;5444.996;4528.761;4797.056;4684.739;1951.233;2429.932;1614.019
1715069290191;4731.864;5468.205;4548.356;4818.7;4704.296;1992.732;2468.973;1664.683
1715069290199;4744.493;5483.851;4562.475;4832.633;4719.049;1962.595;2437.942;1625.121
1715069290207;4776.977;5522.259;4596.04;4867.353;4751.757;1982.749;2469.867;1647.361
1715069290215;4799.403;5548.746;4618.578;4892.908;4772.693;2024.062;2506.264;1683.533
1715069290223;4826.486;5575.903;4642.233;4918.128;4797.056;1985.915;2479.888;1641.177
1715069290231;4830.025;5583.651;4646.406;4921.928;4802.682;2023.578;2510.958;1688.711
1715069290239;4849.695;5605.37;4664.138;4937.798;4822.314;2013.706;2494.045;1663.901
1715069290247;4876.591;5632.416;4688.241;4962.198;4849.844;2023.205;2509.43;1683.533
1715069290255;4878.789;5637.258;4691.109;4967.265;4851.557;2045.818;2526.306;1703.948
1715069290263;4894.361;5657.636;4707.538;4985.63;4867.055;2016.015;2506.003;1667.105
1715069290271;4898.906;5666.427;4712.865;4994.012;4872.792;2050.027;2542.213;1712.553
1715069290279;4917.346;5686.022;4729.591;5012.117;4891.157;2033.301;2521.686;1688.637
1715069290284;4958.361;5727.634;4768.036;5051.717;4932.396;2057.701;2558.492;1716.204
1715069290292;4966.557;5739.741;4776.195;5058.795;4940.741;2083.667;2584.942;1741.536
1715069290300;4986.041;5763.248;4797.429;5078.577;4960.41;2052.374;2559.237;1703.873
1715069290308;4974.306;5751.29;4784.502;5069.189;4949.123;2071.746;2572.276;1730.286
1715069290316;5004.257;5785.041;4816.167;5098.32;4978.664;2076.067;2580.844;1723.655
1715069290324;5022.437;5809.106;4832.558;5120.374;4997.104;2083.406;2593.175;1732.409
1715069290332;5032.122;5816.557;4839.375;5129.129;5005.933;2111.979;2613.813;1758.97
1715069290340;5066.544;5851.462;4871.376;5159.229;5039.088;2084.375;2599.061;1730.621
1715069290348;5060.36;5849.376;4867.762;5154.014;5032.942;2122.633;2637.17;1773.499
1715069290356;5083.01;5875.155;4890.449;5177.11;5056.15;2107.956;2620.891;1749.732
1715069290364;5104.281;5902.238;4912.019;5199.313;5077.98;2105.944;2625.1;1753.382
1715069290372;5100.742;5899.444;4906.058;5196.557;5074.106;2131.611;2645.366;1777.746
1715069290380;5121.678;5922.616;4928.82;5219.69;5094.632;2101.958;2620.555;1742.467
1715069290388;5120.486;5920.306;4925.132;5215.742;5093.18;2134.703;2656.02;1784.824
1715069290396;5144.999;5945.861;4947.558;5242.117;5118.176;2133.958;2656.132;1774.952
1715069290404;5161.129;5966.872;4966.11;5262.196;5134.866;2136.082;2664.216;1777.56
1715069290412;5166.307;5971.529;4968.904;5268.752;5139.82;2168.603;2692.156;1808.181
1715069290420;5193.129;6001.927;4997.291;5294.979;5166.083;2145.469;2671.443;1780.242
1715069290428;5183.518;5993.917;4987.083;5285.181;5156.882;2161.6;2683.177;1803.562
1715069290436;5200.058;6012.395;5002.618;5300.865;5172.603;2144.165;2668.723;1775.287
1715069290444;5211.606;6024.018;5010.18;5310.252;5182.4;2141.707;2669.916;1779.348
1715069290452;5212.203;6028.041;5012.155;5312.152;5186.461;2172.291;2696.887;1810.826
1715069290460;5243.942;6063.021;5045.645;5347.17;5216.487;2164.021;2696.365;1792.796
1715069290468;5240.589;6062.426;5043.149;5344.525;5213.469;2199.858;2731.644;1833.96
1715069290479;5275.421;6096.4;5075.895;5375.52;5247.407;2200.827;2727.918;1826.808
1715069290487;5278.811;6098.263;5076.528;5381.48;5251.467;2180.524;2719.499;1818.202
1715069290495;5280.413;6104.968;5077.869;5382.933;5252.212;2206.229;2733.506;1840.144
1715069290503;5308.054;6134.063;5106.404;5410.388;5280.636;2191.03;2725.05;1816.191
1715069290511;5303.733;6128.959;5100.37;5405.583;5276.836;2220.31;2753.809;1854.449
1715069290519;5305.745;6135.702;5106.628;5409.829;5276.166;2201.945;2732.985;1827.739
1715069290527;5315.505;6146.804;5114.451;5418.509;5286.224;2205.744;2752.505;1837.313
1715069290535;5311.705;6144.792;5109.236;5412.325;5283.654;2227.165;2757.758;1856.238
1715069290543;5346.425;6181.523;5145.073;5449.802;5319.007;2210.997;2741.031;1833.104
1715069290551;5344.637;6180.182;5142.242;5448.535;5317.293;2246.648;2782.568;1873.56
1715069290559;5358.42;6193.63;5155.876;5460.493;5331.077;2224.706;2758.689;1841.746
1715069290567;5359.538;6196.797;5155.876;5461.872;5330.518;2218.224;2754.331;1839.362
1715069290575;5356.334;6194.897;5151.704;5460.195;5327.389;2241.991;2774.037;1863.986
1715069290583;5395.822;6236.695;5191.9;5499.125;5367.659;2224.781;2770.424;1844.54
1715069290591;5386.435;6228.574;5179.867;5490.109;5358.197;2254.061;2802.834;1882.017
1715069290599;5390.942;6234.72;5184.449;5494.952;5362.257;2244.003;2790.056;1856.759
1715069290607;5393.289;6235.205;5185.567;5494.468;5364.642;2221.13;2770.461;1843.385
1715069290615;5406.7;6247.498;5198.605;5507.357;5377.345;2256.557;2796.874;1880.899
1715069290623;5444.549;6292.313;5238.168;5550.608;5413.815;2249.926;2794.75;1866.631
1715069290631;5441.047;6289.892;5233.958;5546.212;5411.804;2268.255;2817.698;1892.187
1715069290639;5463.325;6312.244;5255.267;5565.546;5433.708;2265.014;2809.949;1878.664
1715069290647;5460.195;6309.45;5251.579;5562.976;5431.473;2255.775;2801.716;1870.878
1715069290655;5461.462;6314.069;5255.64;5565.546;5432.367;2284.236;2824.031;1898.11
1715069290663;5481.131;6331.615;5275.197;5584.993;5451.254;2263.635;2812.818;1871.437
1715069290661;5456.209;6308.108;5249.008;5561.15;5426.593;2273.917;2820.604;1891.293
1715069290669;5467.907;6320.923;5261.376;5572.922;5439.669;2254.583;2796.799;1865.029
1715069290677;5484.782;6339.922;5275.495;5587.749;5457.178;2262.294;2814.941;1877.695
1715069290685;5494.207;6348.714;5281.605;5597.547;5464.554;2292.171;2844.11;1908.168
1715069290693;5518.198;6374.046;5307.57;5621.426;5488.247;2270.676;2828.501;1881.197
1715069290701;5506.277;6361.492;5296.655;5609.84;5477.592;2295.747;2850.704;1912.899
1715069290709;5514.1;6367.192;5304.031;5616.21;5484.223;2280.511;2835.691;1891.479
1715069290717;5523.003;6379.15;5312.413;5626.79;5493.686;2285.056;2844.147;1900.941
1715069290725;5513.393;6376.691;5305.856;5621.351;5483.068;2310.909;2864.562;1925.23
1715069290733;5530.38;6391.257;5323.589;5635.433;5501.993;2267.025;2830.066;1884.513
1715069290741;5518.832;6377.436;5308.837;5622.841;5489.55;2291.24;2854.243;1915.656
1715069290749;5531.348;6389.246;5319.864;5634.725;5501.621;2281.479;2839.677;1896.359
1715069290757;5537.383;6398.41;5326.346;5641.468;5507.283;2284.05;2844.185;1903.921
1715069290765;5531.274;6391.555;5318.783;5636.662;5501.21;2305.582;2862.438;1923.367
1715069290773;5549.341;6411.709;5336.479;5654.357;5520.321;2279.207;2840.571;1892.075
1715069290781;5531.684;6396.212;5319.864;5636.923;5502.403;2308.227;2865.456;1927.391
1715069290789;5546.398;6410.628;5337.112;5653.873;5520.061;2298.69;2858.937;1913.756
1715069290797;5550.72;6413.199;5338.676;5655.698;5522.743;2295.673;2865.456;1914.203
1715069290805;5535.856;6401.912;5324.185;5641.282;5507.842;2304.39;2864.674;1922.771
1715069290813;5556.494;6424.673;5348.213;5665.72;5529.448;2282.746;2845.377;1897.551
1715069290821;5534.44;6399.602;5323.179;5641.542;5507.06;2298.094;2857.037;1918.823
1715069290829;5539.395;6404.146;5326.01;5642.921;5511.045;2287.03;2848.878;1895.316
1715069290837;5581.938;6445.274;5369.559;5684.83;5554.52;2317.987;2882.89;1932.941
1715069290845;5584.657;6453.656;5375.445;5689.562;5555.823;2350.546;2905.875;1965.612
1715069290850;5584.508;6452.724;5376.711;5689.636;5557.351;2306.029;2868.362;1920.611
1715069290858;5559.437;6426.871;5348.884;5666.875;5532.168;2323.128;2883.151;1945.086
1715069290866;5556.233;6422.549;5343.37;5661.994;5528.517;2299.1;2858.452;1912.341
1715069290874;5563.125;6429.031;5349.256;5668.104;5535.446;2309.494;2881.289;1924.783
1715069290882;5540.997;6406.494;5327.575;5646.162;5513.355;2318.472;2877.191;1932.122
1715069290890;5555.786;6422.214;5344.152;5660.616;5526.915;2275.892;2830.066;1887.716
1715069290898;5574.264;6443.262;5364.716;5680.285;5544.014;2330.728;2882.592;1952.127
1715069290906;5579.404;6446.354;5367.808;5682.856;5549.304;2319.589;2875.924;1930.483
1715069290914;5579.144;6447.844;5367.51;5684.681;5549.602;2310.276;2872.683;1924.969
1715069290922;5563.2;6432.459;5351.976;5667.545;5534.738;2329.499;2884.865;1937.933
1715069290930;5573.854;6443.374;5362.555;5678.907;5545.281;2307.072;2870.932;1911.521
1715069290938;5545.653;6415.881;5331.896;5652.532;5516.41;2324.283;2889.261;1937.039
1715069290946;5552.806;6424.971;5342.96;5662.739;5523.823;2294.928;2854.131;1895.949
1715069290954;5572.14;6442.89;5362.481;5681.962;5543.008;2291.538;2841.502;1903.325
1715069290962;5582.422;6455.257;5372.092;5692.393;5552.694;2336.837;2883.337;1948.029
1715069290970;5599.372;6471.649;5390.942;5707.667;5570.203;2317.354;2871.938;1921.058
1715069290978;5562.604;6434.321;5352.795;5670.525;5533.36;2328.791;2883.039;1941.472
1715069290986;5564.578;6434.508;5354.583;5671.009;5535.632;2310.835;2867.244;1919.568
1715069290994;5570.166;6438.159;5359.203;5675.927;5541.667;2311.617;2876.967;1923.367
1715069291002;5556.643;6427.094;5349.778;5667.694;5527.437;2325.475;2874.807;1936.443
1715069291010;5576.76;6445.609;5366.094;5683.75;5546.175;2290.606;2849.884;1902.655
1715069291018;5556.717;6424.188;5344.115;5661.547;5526.729;2313.852;2882.741;1932.345
1715069291026;5555.674;6424.263;5345.27;5662.963;5525.909;2301.82;2860.799;1905.411
1715069291034;5554.445;6424.412;5341.955;5659.647;5524.159;2298.318;2857.819;1908.578
1715069291055;5546.138;6412.752;5332.12;5650.669;5515.069;2318.025;2880.767;1930.967
1715069291063;5560.182;6426.945;5347.691;5666.129;5529.262;2283.752;2847.202;1897.179
1715069291071;5546.25;6412.752;5333.945;5653.836;5517.602;2314.784;2877.451;1935.81
1715069291079;5559.996;6426.387;5347.84;5668.737;5531.348;2312.101;2873.316;1920.722
1715069291087;5562.529;6429.33;5351.901;5669.966;5533.099;2308.488;2877.824;1921.691
1715069291095;5540.103;6406.419;5327.575;5645.976;5511.828;2310.984;2870.299;1925.603
1715069291103;5546.846;6411.634;5335.324;5653.426;5519.018;2275.221;2831.109;1889.579
1715069291111;5548.261;6412.23;5338.155;5655.922;5518.682;2322.197;2878.457;1939.423
1715069291119;5557.5;6422.736;5347.356;5665.57;5529.113;2313.852;2870.821;1920.499
1715069291127;5562.641;6423.555;5351.827;5668.402;5535.111;2310.537;2868.25;1928.21
1715069291135;5549.975;6408.356;5337.931;5653.985;5523.078;2331.1;2885.498;1947.619
1715069291143;5546.547;6407.797;5335.957;5652.271;5518.98;2301;2853.461;1912.676
1715069291151;5521.402;6383.844;5309.88;5627.796;5494.133;2305.88;2859.794;1926.906
1715069291159;5532.875;6395.69;5321.242;5638.897;5504.116;2290.83;2838.746;1907.684
1715069291167;5537.83;6400.012;5327.24;5645.23;5511.455;2286.397;2840.832;1912.154
1715069291175;5524.605;6388.277;5315.766;5632.304;5498.23;2305.172;2857.037;1926.906
1715069291183;5541.593;6402.47;5331.114;5649.142;5512.908;2281.815;2845.526;1901.612
1715069291191;5520.992;6381.571;5312.599;5630.813;5492.568;2310.649;2862.364;1941.36
1715069291199;5524.233;6382.875;5316.548;5631.447;5497.485;2304.129;2849.661;1924.075
1715069291207;5524.084;6383.062;5314.723;5629.733;5498.007;2294.891;2849.437;1914.725
1715069291215;5502.85;6363.69;5294.718;5610.213;5475.096;2300.814;2850.927;1915.097
1715069291223;5512.536;6372.481;5302.914;5618.296;5483.329;2269.782;2816.394;1884.401
1715069291231;5487.986;6348.751;5277.656;5594.12;5461.946;2287.142;2836.175;1909.882
1715069291239;5509.705;6370.88;5303.025;5614.832;5484.41;2295.449;2846.383;1906.343
1715069291243;5518.869;6377.399;5310.29;5625.04;5491.935;2304.204;2848.841;1919.754
1715069291251;5487.501;6345.771;5277.209;5594.678;5459.487;2313.592;2846.755;1927.987
1715069291259;5490.445;6347.746;5281.083;5595.609;5461.387;2272.8;2817.027;1884.55
1715069291267;5483.367;6338.656;5273.148;5591.4;5455.986;2306.29;2855.994;1927.949
1715069291275;5491.786;6342.53;5281.679;5597.36;5465.448;2297.349;2843.402;1910.962
1715069291283;5479.38;6330.684;5270.578;5584.955;5452.559;2286.36;2837.926;1908.69
1715069291291;5448.945;6300.025;5242.377;5556.643;5422.011;2282.374;2824.552;1908.019
1715069291299;5473.383;6324.016;5268.566;5581.081;5446.375;2261.736;2806.448;1878.552
1715069291307;5454.011;6303.675;5247.816;5561.001;5425.587;2294.518;2840.198;1917.481
1715069291315;5456.768;6305.017;5248.301;5560.48;5429.573;2284.423;2823.249;1899.898
1715069291323;5451.888;6300.099;5243.495;5555.712;5424.209;2268.292;2812.929;1891.814
1715069291331;5435.608;6284.416;5230.01;5540.513;5409.531;2279.803;2823.77;1897.253
1715069291339;5439.706;6290.563;5236.641;5545.542;5413.406;2253.912;2801.12;1869.351
1715069291347;5436.912;6286.055;5233.548;5545.132;5410.016;2289.079;2827.98;1911.856
1715069291355;5447.417;6294.027;5241.074;5551.39;5419.589;2271.496;2814.792;1885.034
1715069291363;5443.953;6283.745;5235.262;5544.647;5418.174;2263.226;2812.52;1886.338
1715069291371;5423.874;6264.634;5216.971;5525.872;5399.622;2279.058;2820.641;1903.325
1715069291379;5429.983;6270.967;5223.006;5531.981;5403.385;2250.411;2793.185;1871.809
1715069291387;5398.84;6237.328;5190.633;5500.056;5374.141;2274.476;2813.302;1901.425
1715069291395;5399.175;6237.477;5192.645;5501.099;5373.433;2261.81;2798.662;1878.142
1715069291403;5404.986;6245.151;5201.437;5508.922;5378.872;2264.827;2805.665;1883.693
1715069291411;5385.056;6222.501;5180.091;5485.825;5360.208;2268.925;2797.134;1893.826
1715069291419;5383.864;6220.713;5177.11;5483.627;5359.538;2222.806;2754.964;1845.881
1715069291427;5345.531;6183.646;5142.205;5448.833;5319.864;2231.523;2765.097;1858.436
1715069291436;5381.629;6213.263;5178.116;5482.584;5356.521;2241.693;2781.227;1857.691
1715069291444;5386.546;6219.559;5182.4;5488.507;5361.624;2247.207;2788.268;1867.712
1715069291452;5353.093;6186.552;5151.033;5458.333;5328.506;2256.93;2785.511;1879.632
1715069291460;5348.623;6177.425;5144.402;5451.776;5323.552;2218.708;2748.817;1840.293
1715069291468;5342.625;6168.075;5136.691;5443.282;5318.56;2254.993;2785.958;1885.109
1715069291476;5354.322;6183.088;5152.3;5454.831;5331.151;2250.671;2781.115;1871.437
1715069291484;5333.237;6164.014;5132.817;5435.422;5310.811;2223.216;2756.64;1848.415
1715069291492;5306.713;6136.484;5105.026;5409.382;5283.728;2227.835;2759.248;1851.208
1715069291500;5300.306;6128.4;5100.034;5403.869;5275.868;2184.734;2717.86;1813.211
1715069291508;5291.775;6117.746;5091.988;5394.481;5268.715;2222.471;2755.895;1862.049
1715069291516;5301.46;6125.085;5099.103;5400.553;5278.252;2214.909;2739.057;1847.744
1715069291524;5288.236;6108.47;5085.208;5386.919;5264.208;2198.778;2730.563;1833.141
1715069291532;5275.011;6095.171;5071.908;5374.7;5251.728;2223.477;2749.413;1854.934
1715069291540;5278.885;6097.741;5076.565;5378.686;5254.969;2188.161;2712.831;1814.477
1715069291548;5249.679;6069.653;5049.706;5350.336;5225.427;2200.492;2728.589;1835.786
1715069291556;5251.691;6068.982;5051.046;5350.374;5227.066;2189.167;2718.233;1816.526
1715069291564;5238.652;6055.981;5039.685;5339.198;5212.687;2180.934;2710.372;1813.918
1715069291572;5216.971;6032.363;5017.37;5316.846;5191.155;2187.789;2706.833;1822.934
1715069291580;5252.846;6066.188;5053.99;5351.566;5228.445;2184.51;2703.741;1814.03
1715069291588;5231.462;6045.252;5036.183;5331.188;5207.472;2206.899;2725.46;1842.715
1715069291596;5210.005;6025.657;5014.725;5311.333;5185.604;2170.615;2673.902;1800.992
1715069291604;5194.619;6009.713;4998.855;5296.32;5171.56;2164.282;2674.945;1799.129
1715069291612;5200.207;6009.676;5004.48;5299.784;5177.632;2206.49;2720.43;1837.537
1715069291620;5195.178;6002.635;5001.389;5294.457;5171.374;2155.565;2670.437;1786.724
1715069291640;5172.528;5978.123;4976.057;5270.652;5148.389;2177.395;2687.834;1814.142
1715069291648;5189.479;5992.949;4993.305;5286.708;5165.749;2171.993;2681.948;1801.178
1715069291656;5172.938;5977.34;4977.174;5270.876;5148.538;2159.998;2676.397;1798.16
1715069291664;5145.296;5948.208;4948.75;5243.085;5120.561;2172.142;2683.327;1809.001
1715069291672;5152.077;5954.988;4957.43;5250.61;5127.154;2133.176;2644.658;1765.75
1715069291680;5123.839;5922.616;4928.187;5222.149;5099.513;2153.367;2657.473;1793.765
1715069291688;5100.928;5896.166;4906.282;5198.643;5076.714;2112.314;2615.154;1746.304
1715069291696;5113.52;5909.8;4920.251;5209.036;5089.752;2119.765;2624.951;1757.033
1715069291704;5135.76;5930.029;4940.368;5228.371;5110.837;2182.946;2689.324;1819.618
1715069291712;5140.751;5930.588;4943.721;5233.66;5116.165;2146.624;2662.428;1781.769
1715069291720;5097.538;5888.082;4902.221;5195.141;5072.951;2148.226;2663.471;1793.988
1715069291728;5084.202;5871.132;4888.065;5178.34;5060.435;2115.89;2616.569;1761.354
1715069291736;5071.312;5859.249;4877.188;5165.078;5047.545;2098.903;2599.843;1753.569
1715069291744;5053.878;5840.436;4859.343;5148.649;5029.253;2118.2;2620.891;1766.048
1715069291752;5062.111;5847.551;4869.104;5156.808;5035.289;2094.507;2595.633;1736.023
1715069291760;5025.119;5808.808;4833.117;5120.933;4999.563;2105.906;2603.866;1756.288
1715069291768;5004.108;5789.101;4813.783;5103.461;4979.819;2062.619;2557.039;1706.928
1715069291776;5043.41;5824.454;4850.887;5138.963;5016.662;2094.209;2589.896;1743.548
1715069291784;5032.83;5812.496;4842.169;5128.123;5007.722;2122.335;2612.472;1771.115
1715069291792;5023.74;5804.934;4834.868;5120.263;4998.632;2085.865;2586.506;1729.168
1715069291800;4987.679;5767.01;4799.105;5085.916;4963.949;2090.67;2581.216;1743.361
1715069291808;4975.833;5754.456;4788.488;5072.877;4952.773;2071.82;2550.557;1714.863
1715069291816;4979.372;5755.723;4793.033;5077.832;4956.424;2080.873;2568.476;1731.515
1715069291824;4959.33;5733.482;4771.687;5055.033;4935.749;2095.737;2584.681;1744.553
1715069291830;4960.746;5731.955;4773.065;5055.07;4939.25;2048.351;2542.622;1693.666
1715069291838;4930.086;5698.651;4741.512;5021.654;4905.984;2065.636;2560.578;1721.643
1715069291846;4937.91;5705.916;4751.831;5029.887;4912.578;2063.364;2554.394;1710.691
1715069291854;4932.88;5697.794;4747.361;5025.342;4909.933;2056.77;2556.853;1710.244
1715069291862;4907.325;5669.594;4720.204;4999.936;4884.638;2062.991;2547.093;1718.886
1715069291870;4915.558;5676.225;4728.325;5008.355;4893.169;2027.676;2511.591;1679.845
1715069291878;4888.289;5651.004;4701.465;4980.974;4863.851;2045.296;2530.441;1708.12
1715069291886;4889.816;5651.563;4703.253;4983.991;4865.862;2035.424;2517.253;1686.96
1715069291894;4878.752;5639.195;4691.929;4973.225;4856.586;2023.056;2510.361;1681.969
1715069291902;4857.108;5616.136;4673.376;4951.954;4834.272;2042.316;2522.99;1697.913
1715069291910;4859.753;5616.396;4676.878;4952.513;4837.438;2005.436;2487.227;1659.989
1715069291918;4837.178;5594.306;4654.788;4928.708;4815.049;2025.701;2509.244;1691.58
1715069291926;4824.214;5580.485;4644.096;4918.203;4801.974;2006.888;2486.855;1665.801
1715069291934;4817.359;5568.303;4634.708;4909.523;4795.752;1996.905;2483.279;1661.144
1715069291942;4804.73;5552.396;4619.397;4893.281;4781.149;2028.942;2503.917;1690.835
1715069291950;4812.479;5561.747;4631.989;4903.786;4790.5;2001.375;2478.063;1656.637
1715069291958;4793.704;5541.705;4614.145;4887.246;4773.475;2020.709;2495.535;1683.719
1715069291966;4788.414;5532.056;4606.582;4878.603;4765.13;1990.348;2470.203;1648.329
1715069291974;4780.889;5523.972;4599.579;4872.456;4756.264;1986.213;2463.572;1654.849
1715069291982;4750.863;5491.078;4571.006;4843.734;4727.244;1998.767;2460.927;1664.348
1715069291990;4751.943;5488.992;4570.298;4840.456;4728.585;1961.887;2437.048;1623.109
1715069291998;4738.346;5472.973;4554.614;4827.12;4714.206;1995.75;2473.518;1665.689
1715069292006;4738.048;5473.495;4559.718;4829.541;4715.622;1978.688;2451.576;1643.933
1715069292014;4725.829;5460.121;4546.419;4817.993;4703.291;1966.469;2445.653;1640.841
1715069292019;4688.688;5419.329;4507.005;4779.51;4663.803;1978.837;2448.447;1647.063
1715069292027;4681.274;5412.847;4505.031;4773.587;4657.879;1934.729;2394.579;1599.118
1715069292035;4675.016;5405.322;4496.91;4767.552;4651.397;1972.02;2435.744;1643.822
1715069292043;4670.099;5397.014;4494.079;4761.815;4646.629;1957.864;2425.201;1620.203
1715069292051;4643.537;5368.255;4467.07;4735.328;4620.254;1930.93;2392.493;1604.93
1715069292059;4636.906;5359.352;4458.8;4726.127;4613.698;1948.401;2401.173;1625.158
1715069292067;4659.854;5381.107;4481.971;4747.771;4636.534;1938.976;2398.118;1609.027
1715069292075;4624.054;5342.215;4446.693;4712.12;4600.324;1957.528;2415.925;1638.42
1715069292083;4611.202;5329.251;4435.666;4698.262;4587.807;1930.52;2385.117;1605.712
1715069292091;4601.702;5318.522;4425.794;4689.209;4580.058;1923.107;2387.203;1602.732
1715069292099;4569.851;5285.032;4394.278;4656.501;4546.642;1930.296;2393.387;1611.002
1715069292107;4567.504;5280.636;4394.129;4654.005;4543.215;1890.697;2341.457;1566.857
1715069292115;4544.817;5258.135;4373.938;4632.138;4522.838;1909.733;2350.099;1591.556
1715069292123;4548.505;5256.943;4376.545;4635.155;4525.669;1898.296;2340.227;1571.588
1715069292131;4547.536;5255.341;4375.056;4635.453;4525.557;1905.076;2354.384;1582.243
1715069292139;4528.724;5234.033;4353.896;4615.523;4505.59;1918.525;2364.218;1598.261
1715069292147;4535.653;5239.062;4359.558;4619.323;4513.934;1880.042;2333.857;1560.338
1715069292155;4500.821;5203.188;4326.626;4585.87;4480.667;1895.316;2346.672;1582.615
1715069292163;4487.671;5189.404;4314.445;4572.235;4466.139;1872.927;2315.082;1550.652
1715069292171;4478.619;5177.483;4307.814;4564.934;4456.267;1870.245;2314.411;1552.85
1715069292179;4471.541;5168.877;4304.2;4557.259;4448.854;1901.351;2336.614;1582.913
1715069292187;4472.397;5169.958;4305.43;4557.185;4451.163;1865.439;2304.204;1543.5
1715069292195;4449.04;5143.396;4281.551;4536.323;4427.955;1882.911;2324.618;1569.316
1715069292203;4440.77;5132.667;4273.988;4527.494;4418.083;1857.244;2299.137;1534.969
1715069292207;4410.147;5098.917;4241.765;4494.228;4386.269;1833.662;2266.131;1521.185
1715069292215;4384.89;5072.02;4216.47;4467.704;4362.129;1855.232;2281.629;1544.617
1715069292223;4401.766;5085.356;4232.861;4484.169;4380.979;1833.737;2269.708;1523.793
1715069292231;4390.888;5073.957;4221.164;4474.968;4369.766;1858.883;2290.346;1557.395
1715069292239;4382.283;5065.575;4215.985;4465.99;4360.974;1832.88;2266.429;1520.477
1715069292247;4376.396;5057.23;4211.18;4461.296;4355.237;1822.188;2265.349;1513.027
1715069292255;4335.94;5013.384;4170.388;4420.988;4313.216;1827.106;2258.83;1520.515
1715069292263;4334.673;5009.547;4170.611;4418.604;4314.892;1788.959;2217.293;1482.889
1715069292271;4306.808;4982.054;4144.981;4392.229;4286.207;1808.964;2231.449;1509.45
1715069292279;4298.985;4969.388;4133.582;4381.127;4277.416;1793.28;2220.05;1479.611
1715069292287;4309.081;4976.503;4142.15;4389.957;4286.803;1802.668;2233.535;1497.343
1715069292295;4293.173;4959.367;4129.41;4374.869;4272.051;1818.575;2237;1512.319
1715069292303;4303.418;4969.649;4142.523;4387.2;4281.886;1793.951;2216.436;1483.56
1715069292311;4270.449;4932.657;4108.474;4354.38;4249.29;1811.758;2235.845;1510.605
1715069292319;4270.486;4929.863;4103.78;4349.127;4249.625;1783.036;2208.538;1479.611
1715069292327;4253.537;4914.403;4087.687;4332.438;4233.383;1761.243;2186.671;1465.417
1715069292335;4216.805;4875.548;4054.01;4298.314;4196.353;1765.601;2181.865;1470.149
1715069292343;4218.742;4874.952;4058.182;4300.624;4199.11;1733.75;2154.261;1436.36
1715069292351;4189.61;4844.069;4031.509;4272.312;4169.904;1754.127;2175.309;1459.569
1715069292359;4180.893;4833.49;4021.488;4262.477;4159.25;1734.346;2152.324;1430.661
1715069292367;4176.237;4825.853;4015.118;4256.591;4155.114;1732.67;2150.536;1434.945
1715069292375;4163.943;4811.958;4003.346;4242.733;4143.603;1754.761;2170.727;1453.757
1715069292383;4167.631;4816.204;4009.381;4248.47;4146.695;1722.164;2143.606;1421.943
1715069292391;4130.006;4775.45;3971.681;4211.329;4109.74;1729.727;2134.889;1442.47
1715069292400;4123.971;4766.695;3967.323;4202.984;4105.382;1717.992;2114.512;1417.585
1715069292408;4118.867;4758.127;3961.585;4197.359;4097.894;1715.31;2126.247;1424.514
1715069292416;4086.792;4724.6;3929.138;4169.531;4065.67;1720.6;2128.109;1430.176
1715069292424;4116.669;4753.396;3959.201;4195.571;4095.398;1714.453;2123.304;1421.31
1715069292432;4079.118;4714.243;3924.407;4158.616;4060.343;1724.288;2131.313;1442.134
1715069292440;4074.126;4705.824;3919.192;4150.532;4056.543;1706.667;2110.638;1411.364
1715069292448;4082.434;4711.971;3925.972;4158.579;4064.552;1710.765;2119.541;1422.167
1715069292456;4048.571;4676.469;3889.464;4125.424;4028.641;1714.267;2112.91;1425.818
1715069292464;4035.272;4660.822;3878.437;4110.97;4016.422;1665.689;2067.015;1372.211
1715069292472;4001.111;4629.083;3850.572;4081.577;3983.229;1684.092;2075.471;1399.778
1715069292480;4000.962;4625.134;3849.64;4076.846;3982.857;1665.615;2059.415;1376.01
1715069292488;3999.583;4617.05;3847.07;4073.307;3981.553;1666.211;2068.542;1380.593
1715069292496;3972.948;4589.521;3819.764;4048.646;3953.539;1675.747;2070.256;1390.129
1715069292504;3976.934;4593.916;3825.24;4051.886;3957.264;1647.584;2045.333;1364.127
1715069292512;3949.516;4565.679;3798.12;4024.394;3930.479;1678.094;2073.72;1398.139
1715069292520;3930.293;4543.998;3779.382;4004.724;3911.778;1640.059;2032.22;1351.833
1715069292528;3922.06;4533.678;3770.702;3997.013;3902.391;1624.301;2013.668;1348.034
1715069292536;3922.917;4533.492;3772.974;3998.764;3903.285;1661.927;2045.631;1382.083
1715069292544;3920.645;4530.214;3771.037;3995.672;3902.428;1623.221;2018.027;1343.414
1715069292552;3891.177;4497.729;3743.209;3967.248;3872.849;1643.039;2032.071;1367.815
1715069292560;3878.474;4481.897;3730.059;3953.837;3859.326;1621.135;2005.436;1337.156
1715069292568;3854.819;4457.012;3705.435;3929.138;3837.422;1600.422;1992.658;1328.438
1715069292576;3833.436;4433.394;3684.983;3907.047;3815.256;1614.988;2001.636;1345.985
1715069292584;3840.513;4438.87;3691.502;3913.492;3822.297;1587.458;1973.137;1310.11
1715069292588;3818.125;4411.153;3664.233;3887.527;3800.206;1607.835;1993.552;1340.471
1715069292596;3804.192;4396.476;3654.435;3876.388;3787.056;1577.511;1958.832;1304.895
1715069292604;3796.89;4388.802;3651.231;3870.726;3780.685;1570.918;1954.921;1306.161
1715069292612;3795.847;4384.145;3646.761;3868.938;3777.519;1612.939;1989.976;1346.916
1715069292620;3784.113;4373.565;3637.262;3859.252;3766.641;1572.073;1947.172;1303.554
1715069292628;3742.688;4332.103;3597.96;3818.423;3725.328;1576.804;1948.513;1315.624
1715069292636;3731.586;4319.474;3587.864;3806.092;3714.189;1548.491;1914.166;1280.718
1715069292644;3730.17;4314.966;3585.592;3807.06;3712.103;1545.288;1917.668;1284.48
1715069292652;3698.543;4280.47;3553.703;3772.602;3680.214;1553.372;1921.579;1289.509
1715069292660;3700.517;4280.992;3556.05;3772.08;3681.704;1522.191;1894.496;1258.18
1715069292668;3682.524;4262.104;3537.871;3754.348;3664.978;1551.77;1922.585;1295.023
1715069292676;3666.654;4241.578;3521.666;3737.137;3650.635;1521.334;1882.054;1259.67
1715069292684;3677.83;4250.705;3532.246;3747.791;3661.923;1526.698;1890.697;1272.112
1715069292692;3647.804;4220.307;3504.939;3721.23;3629.96;1535.9;1893.64;1281.574
1715069292700;3640.167;4211.776;3500.618;3712.848;3623.478;1497.045;1861.528;1242.72
1715069292708;3618.784;4185.848;3477.819;3689.341;3603.958;1525.395;1884.066;1279.265
1715069292716;3618.375;4182.905;3480.203;3688.522;3601.536;1509.078;1869.835;1253.597
1715069292724;3612.712;4177.838;3475.137;3684.61;3595.836;1506.023;1868.829;1256.242
1715069292732;3579.892;4141.517;3438.667;3651.12;3565.103;1514.74;1853.704;1264.773
1715069292740;3570.579;4130.639;3430.247;3639.646;3555.343;1472.235;1815.707;1219.734
1715069292748;3540.777;4099.123;3401.339;3610.253;3525.875;1486.912;1833.327;1241.863
1715069292756;3546.476;4100.464;3407.97;3613.01;3530.234;1467.168;1817.457;1214.184
1715069292764;3528.781;4080.348;3386.959;3594.905;3511.086;1451.075;1810.454;1206.808
1715069292772;3511.012;4059.821;3370.792;3576.912;3493.279;1474.544;1815.707;1229.905
1715069292777;3509.335;4055.053;3372.617;3576.502;3492.422;1439.042;1782.626;1190.081
1715069292785;3504.232;4052.11;3369.078;3573.857;3489.591;1481.399;1826.398;1241.751
1715069292793;3506.541;4053.414;3370.792;3574.714;3490.448;1473.688;1815.483;1221.038
1715069292801;3489.293;4031.882;3353.916;3557.205;3472.902;1454.279;1799.539;1199.804
1715069292809;3463.03;4003.57;3327.727;3531.463;3446.117;1457.483;1791.194;1207.776
1715069292817;3454.462;3991.537;3319.904;3521.442;3437.139;1417.697;1753.196;1171.045
1715069292825;3427.863;3959.686;3290.772;3492.534;3410.466;1437.962;1773.76;1198.463
1715069292833;3420.785;3954.992;3288.09;3484.86;3404.506;1424.551;1751.11;1172.982
1715069292841;3414.638;3946.274;3280.304;3477.484;3399.886;1413.599;1746.975;1168.512
1715069292849;3401.861;3932.007;3268.756;3466.904;3384.911;1432.076;1763.068;1184.978
1715069292857;3404.803;3932.901;3273.897;3469.922;3387.369;1411.773;1752.078;1160.838
1715069292865;3377.944;3905.594;3245.92;3443.249;3360.771;1426.786;1745.41;1187.809
1715069292873;3363.937;3889.129;3229.938;3427.006;3347.769;1388.453;1707.599;1146.942
1715069292881;3338.978;3863.871;3205.948;3402.755;3322.177;1376.197;1706.332;1139.417
1715069292889;3347.769;3869.757;3215.894;3412.105;3331.415;1415.536;1741.35;1176.558
1715069292897;3364.235;3881.119;3229.938;3425.218;3347.658;1394.823;1720.376;1152.94
1715069292905;3329.404;3848.262;3198.497;3395.304;3312.267;1406.446;1733.303;1169.555
1715069292913;3313.236;3829.636;3183.335;3376.976;3298.037;1377.277;1703.911;1134.425
1715069292921;3296.733;3811.27;3168.918;3362.708;3282.353;1363.084;1692.027;1127.832
1715069292929;3267.787;3775.656;3137.626;3330.484;3252.886;1370.981;1689.792;1140.162
1715069292937;3254.078;3758.371;3124.662;3314.614;3238.134;1320.243;1636.371;1092.926
1715069292945;3232.174;3735.982;3104.284;3292.337;3218.353;1352.318;1669.489;1124.777
1715069292953;3250.018;3755.055;3126.04;3310.144;3237.166;1355.372;1673.475;1117.624
1715069292961;3239.252;3743.73;3115.088;3300.942;3225.133;1349.859;1673.885;1119.599
1715069292966;3201.179;3702.305;3073.849;3263.503;3184.378;1351.908;1654.886;1125.112
1715069292974;3197.156;3696.233;3071.353;3259.554;3182.068;1306.497;1612.417;1078.36
1715069292982;3167.428;3665.76;3044.344;3232.248;3152.564;1327.47;1634.955;1105.852
1715069292990;3166.981;3661.923;3043.264;3228.188;3151.782;1323.447;1633.167;1088.94
1715069292998;3157.146;3650.784;3033.206;3219.135;3142.618;1312.01;1619.235;1087.896
1715069293006;3130.958;3622.398;3009.811;3193.803;3114.901;1311.079;1608.171;1089.275
1715069293014;3147.498;3636.479;3026.165;3208.369;3131.218;1295.283;1599.118;1071.282
1715069293022;3116.094;3604.516;2993.755;3177.412;3100.783;1316.108;1613.907;1099.706
1715069293030;3105.365;3587.194;2982.132;3163.814;3091.06;1292.34;1592.599;1066.402
1715069293038;3104.955;3584.698;2981.909;3161.095;3089.756;1288.28;1596.771;1070.09
1715069293046;3081.933;3558.397;2960.451;3140.83;3065.094;1302.846;1608.767;1081.824
1715069293054;3081.225;3557.689;2961.531;3139.302;3065.243;1263.06;1564.1;1041.517
1715069293062;3048.256;3523.529;2928.19;3107.6;3033.243;1273.602;1568.98;1061.335
1715069293070;3034.733;3511.906;2917.275;3092.177;3020.54;1253.56;1546.927;1030.564
1715069293078;3034.584;3506.616;2915.077;3091.469;3021.471;1256.764;1559.667;1035.184
1715069293086;3025.234;3496.036;2902.895;3084.689;3011.487;1272.969;1564.473;1055.785
1715069293094;3024.042;3492.534;2901.74;3081.933;3008.433;1242.012;1533.031;1020.059
1715069293102;2999.082;3465.861;2878.942;3055.967;2984.665;1270.063;1561.046;1050.122
1715069293110;2976.954;3444.292;2859.645;3034.063;2962.872;1237.728;1521.111;1014.21
1715069293118;2977.885;3443.696;2862.178;3037.043;2963.319;1241.863;1532.175;1024.306
1715069293126;2978.63;3440.306;2861.582;3034.584;2963.916;1268.052;1561.865;1046.173
1715069293134;2967.976;3429.763;2853.014;3023.483;2953.522;1222.23;1509.488;1000.24
1715069293142;2922.267;3383.867;2808.906;2980.94;2908.968;1226.85;1507.625;1011.677
1715069293150;2920.33;3379.062;2806.336;2977.215;2906.285;1216.941;1501.776;995.137
1715069293172;2916.902;3371.09;2802.983;2972.335;2902.001;1217.313;1503.751;1006.052
1715069293180;2900.213;3351.383;2786.815;2954.49;2887.584;1232.401;1513.213;1020.022
1715069293188;2896.45;3347.248;2786.182;2950.877;2883.449;1194.328;1478.791;977.851
1715069293196;2858.229;3309.175;2747.364;2913.773;2845.265;1205.355;1489.52;999.384
1715069293204;2849.81;3295.429;2735.443;2900.735;2835.989;1189.522;1467.057;979.118
1715069293212;2843.365;3282.093;2726.95;2892.576;2829.805;1184.605;1467.392;976.734
1715069293220;2830.736;3269.389;2716.072;2881.549;2819.076;1195.222;1466.609;990.331
1715069293228;2834.089;3275.275;2722.964;2888.18;2821.013;1164.786;1439.229;964.515
1715069293236;2815.016;3255.196;2706.535;2868.25;2802.424;1187.25;1459.755;992.492
1715069293244;2789.609;3228.858;2681.688;2843.253;2775.453;1151.599;1416.989;948.273
1715069293252;2781.861;3219.135;2671.331;2836.473;2766.326;1157.485;1429.804;955.723
1715069293260;2771.579;3203.973;2660.416;2824.515;2756.23;1179.539;1446.344;971.109
1715069293268;2766.922;3198.534;2659.969;2820.38;2753.735;1139.864;1407.601;931.211
1715069293276;2753.548;3184.564;2646.074;2806.038;2739.802;1172.274;1442.73;969.544
1715069293284;2757.833;3184.155;2650.209;2808.496;2743.825;1162.291;1421.161;956.99
1715069293292;2722.032;3144.033;2615.489;2771.989;2708.174;1129.694;1391.433;933.632
1715069293300;2695.434;3118.105;2590.865;2747.141;2680.793;1140.796;1393.445;943.989
1715069293308;2701.134;3120.974;2595.596;2751.164;2687.089;1110.211;1372.918;918.47
1715069293316;2657.473;3076.084;2552.42;2707.988;2644.621;1112.856;1378.618;924.394
1715069293324;2661.459;3079.139;2558.79;2713.65;2648.644;1109.615;1364.537;906.736
1715069293332;2663.508;3078.766;2561.398;2714.656;2649.166;1124.293;1375.154;929.385
1715069293340;2637.245;3050.603;2535.097;2687.536;2623.871;1125.708;1372.881;934.415
1715069293348;2634.935;3047.772;2532.601;2686.009;2622.195;1086.816;1340.732;900.403
1715069293356;2615.526;3025.159;2512.746;2666.935;2604.09;1114.085;1366.548;931.36
1715069293351;2601.631;3007.278;2500.005;2651.066;2588.257;1090.02;1339.614;896.491
1715069293359;2599.396;3003.143;2496.242;2646.595;2586.953;1089.983;1340.918;901.707
1715069293367;2576.225;2979.226;2475.344;2625.324;2563.968;1096.986;1333.43;910.424
1715069293375;2583.712;2984.665;2485.067;2631.769;2571.68;1069.307;1312.494;882.298
1715069293383;2550.296;2950.84;2450.757;2599.359;2537.481;1083.836;1328.513;898.54
1715069293391;2538.599;2936.87;2439.283;2587.028;2526.231;1057.461;1301.207;871.047
1715069293399;2530.701;2925.359;2431.72;2579.056;2518.669;1050.346;1297.146;871.234
1715069293407;2527.945;2923.943;2428.219;2576.522;2514.534;1082.83;1321.621;898.987
1715069293415;2542.771;2938.435;2443.939;2590.977;2528.28;1059.957;1298.003;873.581
1715069293423;2513.193;2908.148;2416.521;2560.876;2500.787;1080.185;1317.188;894.74
1715069293431;2484.657;2876.222;2389.513;2532.564;2472.326;1046.807;1280.718;858.083
1715069293439;2472.028;2860.762;2374.91;2520.643;2459.586;1033.619;1273.118;855.923
1715069293447;2466.85;2854.168;2369.471;2514.124;2453.402;1055.822;1294.501;875.704
1715069293455;2470.389;2853.945;2373.569;2517.477;2456.27;1019.128;1259.707;840.239
1715069293463;2442.263;2822.392;2345.033;2488.606;2428.442;1040.846;1274.385;865.757
1715069293471;2431.609;2806.41;2333.894;2473.444;2418.645;1019.798;1254.566;836.812
1715069293479;2410.859;2787.039;2313.778;2452.098;2397.448;1002.587;1237.169;826.716
1715069293487;2396.405;2774.522;2300.367;2441.816;2383.329;1025.796;1254.529;845.157
1715069293495;2413.429;2787.448;2317.54;2458.058;2401.359;1000.911;1233.257;822.209
1715069293503;2383.59;2755.56;2289.34;2429.374;2371.855;1007.132;1243.241;835.583
1715069293511;2380.051;2750.27;2285.279;2423.897;2368.912;987.872;1214.817;813.492
1715069293519;2373.867;2743.863;2280.846;2418.868;2361.238;998.005;1223.683;826.94
1715069293527;2341.457;2710.149;2251.64;2383.515;2328.865;997.26;1218.505;825.971
1715069293535;2335.832;2702.139;2246.797;2376.772;2321.638;957.325;1178.831;790.358
1715069293542;2316.274;2680.57;2225.302;2359.86;2304.651;983.03;1202.561;817.366
1715069293550;2310.649;2673.864;2220.31;2355.613;2299.137;966.415;1179.054;795.573
1715069293558;2299.436;2661.422;2209.879;2343.841;2286.77;959.821;1176.447;796.132
1715069293566;2278.574;2639.703;2188.571;2322.16;2267.696;968.576;1184.866;803.694
1715069293574;2289.042;2645.217;2196.096;2330.206;2277.009;941.008;1156.591;775.307
1715069293582;2275.035;2629.384;2184.324;2316.087;2264.455;975.467;1188.666;810.251
1715069293590;2275.892;2628.304;2187.267;2317.876;2265.424;966.638;1173.839;790.32
1715069293598;2261.847;2612.472;2173.968;2304.502;2249.889;956.729;1169.108;788.756
1715069293606;2236.552;2585.314;2147.071;2278.239;2227.016;964.366;1175.292;798.702
1715069293614;2237.782;2586.208;2151.69;2279.542;2228.729;930.093;1142.621;764.877
1715069293622;2215.467;2561.696;2130.307;2257.451;2205.707;949.837;1166.053;790.246
1715069293630;2210.103;2552.085;2124.496;2250.671;2198.853;924.505;1123.659;763.945
1715069293638;2203.323;2546.422;2119.094;2244.748;2191.551;927.076;1125;770.465
1715069293646;2182.052;2525.821;2098.27;2223.03;2171.174;946.224;1141.913;784.062
1715069293654;2181.12;2521.426;2099.574;2221.689;2170.168;908.71;1111.925;744.611
1715069293662;2150.908;2489.165;2065.86;2191.104;2141.52;914.782;1119.487;757.91
1715069293670;2156.98;2494.231;2072.565;2196.431;2147.257;901.632;1098.216;743.158
1715069293678;2142.862;2478.138;2057.739;2183.542;2131.76;888.817;1094.714;739.358
1715069293686;2116.375;2448.521;2032.295;2156.422;2105.795;889.227;1091.771;735.298
1715069293694;2131.537;2461.597;2049.319;2171.732;2121.627;868.328;1068.599;708.848
1715069293702;2101.697;2430.23;2017.58;2141.409;2090.856;890.605;1096.353;736.676
1715069293710;2104.454;2426.729;2020.076;2140.813;2093.39;874.81;1079.813;717.752
1715069293718;2105.758;2428.74;2024.472;2146.4;2094.246;879.765;1079.924;729.449
1715069293726;2086.051;2410.822;2004.132;2126.768;2075.098;896.044;1088.977;739.433
1715069293733;2087.019;2409.48;2007.708;2127.402;2076.7;857.264;1057.126;695.81
1715069293741;2049.617;2369.545;1969.375;2091.937;2038.553;866.093;1060.553;715.293
1715069293749;2041.943;2358.332;1960.62;2081.059;2031.96;841.618;1030.713;691.526
1715069293757;2030.283;2345.554;1949.109;2068.616;2020.821;834.428;1033.321;687.093
1715069293765;2013.147;2326.816;1932.867;2050.661;2002.865;850.521;1043.044;702.59
1715069293773;2027.229;2340.451;1949.295;2064.407;2016.351;834.316;1021.735;685.155
1715069293781;1991.913;2305.061;1914.538;2031.624;1981.333;851.639;1037.829;703.149
1715069293789;1980.439;2289.973;1904.89;2019.033;1969.524;821.054;1002.885;669.77
1715069293797;1964.644;2273.507;1888.052;2002.195;1954.548;803.694;989.698;662.506
1715069293805;1967.363;2272.427;1890.734;2004.467;1958.907;844.076;1027.435;697.486
1715069293813;1971.386;2274.141;1892.485;2007.894;1960.732;820.197;1008.846;671.372
1715069293821;1947.321;2247.281;1866.072;1981.594;1935.735;842.251;1032.837;698.455
1715069293829;1954.436;2252.311;1875.088;1985.84;1942.441;828.467;1013.912;679.865
1715069293837;1937.598;2235.398;1861.267;1971.945;1926.273;814.535;1004.04;671.297
1715069293845;1910.143;2208.464;1837.015;1944.005;1901.686;820.346;1003.072;679.344
1715069293853;1906.976;2202.652;1832.359;1939.163;1897.886;779.517;958.89;639.148
1715069293861;1869.425;2165.325;1794.174;1905.076;1861.229;794.269;969.134;659.19
1715069293869;1869.649;2165.623;1798.272;1904.48;1861.751;774.451;941.046;636.28
1715069293877;1859.702;2153.888;1788.437;1893.528;1851.469;767.112;941.828;635.274
1715069293885;1857.728;2148.226;1783.036;1891.144;1848.415;793.45;965.633;653.118
1715069293893;1849.271;2135.932;1775.399;1882.128;1839.846;748.672;924.99;608.675
1715069293901;1832.508;2117.455;1759.492;1865.961;1825.429;782.423;958.219;654.124
1715069293909;1844.019;2129.711;1772.94;1876.615;1837.686;776.425;952.221;640.005
1715069293917;1818.165;2105.124;1749.359;1854.487;1812.205;757.277;933.371;627.488
1715069293921;1794.323;2078.712;1727.194;1829.825;1786.873;772.215;939.518;643.32
1715069293929;1801.476;2083.89;1730.695;1836.233;1792.647;739.843;911.69;612.4
1715069293937;1775.25;2056.658;1704.32;1809.821;1767.613;756.495;927.15;631.176
1715069293945;1758.114;2035.424;1687.743;1790.747;1750.29;724.83;891.611;592.023
1715069293953;1754.686;2026.893;1682.676;1785.494;1746.23;720.546;895.374;597.09
1715069293961;1747.832;2017.953;1675.077;1778.975;1739.748;737.011;910.237;609.979
1715069293969;1751.483;2020.709;1678.951;1781.695;1740.754;712.238;889.339;580.214
1715069293977;1727.864;2000.779;1659.356;1760.535;1718.141;744.462;914.931;611.842
1715069293985;1722.798;1994.52;1657.307;1755.767;1713.969;718.571;879.839;581.332
1715069293993;1707.599;1977.757;1642.108;1738.071;1699.068;705.086;877.418;576.861
1715069294001;1692.735;1960.993;1624.413;1723.133;1685.657;718.31;879.392;592.694
1715069294009;1701.638;1967.624;1634.769;1732.558;1692.958;691.19;855.625;561.737
1715069294017;1680.143;1944.9;1616.702;1711.51;1670.532;712.648;878.461;589.043
1715069294025;1668.93;1930.408;1604.371;1700.073;1660.772;685.155;847.429;557.937
1715069294033;1657.94;1916.438;1592.077;1688.749;1649.782;682.585;847.802;557.937
1715069294041;1650.378;1908.131;1585.893;1679.286;1643.337;710.152;867.248;581.592
1715069294049;1658.574;1915.805;1596.734;1688.711;1652.166;680.722;836.365;550.784
1715069294057;1631.342;1887.94;1567.192;1660.027;1624.711;703.521;858.493;578.575
1715069294065;1613.796;1868.233;1550.205;1642.406;1605.935;667.497;822.321;542.067
1715069294073;1596.995;1847.036;1530.647;1622.103;1589.73;648.275;804.476;532.568
1715069294081;1594.536;1843.087;1529.232;1621.06;1586.042;686.012;836.737;562.705
1715069294089;1605.153;1854.599;1541.711;1634.993;1596.324;668.727;824.556;541.583
1715069294097;1583.807;1828.335;1520.552;1610.964;1575.798;695.474;850.372;576.191
1715069294105;1560.114;1804.456;1497.008;1586.042;1552.925;650.845;797.771;530.109
1715069294127;1548.901;1794.249;1489.036;1577.623;1544.133;636.764;789.464;523.403
1715069294135;1536.049;1778.975;1476.184;1563.728;1529.567;656.88;806.451;537.857
1715069294143;1556.687;1799.837;1496.449;1584.44;1548.231;644.177;794.716;527.389
1715069294151;1537.278;1781.285;1478.121;1566.037;1529.567;668.615;815.392;556.745
1715069294159;1526.885;1768.47;1468.398;1553.893;1519.658;640.154;787.079;519.082
1715069294167;1520.254;1759.045;1461.133;1550.13;1514.591;633.933;785.254;518.002
1715069294175;1514.517;1749.918;1455.918;1543.052;1509.152;654.682;798.516;537.857
1715069294183;1518.95;1754.835;1460.537;1547.56;1511.015;621.49;769.682;502.802
1715069294191;1482.516;1717.769;1425.296;1511.909;1474.805;630.319;784.211;515.096
1715069294199;1477.562;1708.716;1417.808;1502.857;1470.149;595.339;739.917;480.86
1715069294207;1476.78;1705.028;1416.802;1502.261;1468.733;582.859;730.529;481.531
1715069294215;1452.081;1676.418;1392.551;1477.897;1443.662;596.866;740.886;491.664
1715069294223;1467.764;1693.591;1409.687;1493.245;1460.612;579.953;730.12;467.524
1715069294231;1479.462;1705.661;1421.124;1504.794;1470.819;638.291;789.054;531.86
1715069294239;1471.75;1695.007;1411.997;1494.922;1462.437;610.799;758.618;496.432
1715069294247;1448.914;1670.42;1390.912;1472.98;1441.24;592.954;742.711;487.119
1715069294255;1427.308;1648.478;1372.099;1452.044;1420.416;605.471;752.211;495.613
1715069294263;1433.604;1652.613;1377.612;1457.185;1426.861;574.104;723.377;463.054
1715069294271;1407.601;1626.499;1354.59;1431.406;1399.48;591.129;733.398;487.976
1715069294279;1407.899;1630.522;1355.894;1435.801;1401.007;585.206;725.053;471.324
1715069294287;1398.958;1616.776;1345.649;1427.718;1392.886;576.898;714.138;475.235
1715069294295;1382.94;1595.914;1327.693;1408.16;1375.452;584.275;714.25;484.25
1715069294303;1388.453;1601.018;1333.319;1412.407;1381.785;553.243;692.382;454.523
1715069294311;1358.725;1567.975;1302.51;1381.934;1351.833;572.503;710.86;473.894
1715069294315;1361.743;1570.769;1304.895;1382.306;1353.323;565.164;699.721;462.607
1715069294323;1362.599;1570.582;1308.993;1385.286;1355.484;574.44;716.411;479.668
1715069294331;1319.759;1526.81;1271.553;1346.841;1313.686;568.107;700.243;470.765
1715069294339;1308.359;1512.952;1259.67;1333.17;1302.995;515.208;648.424;422.895
1715069294347;1303.293;1506.396;1252.815;1328.364;1299.418;540.949;672.713;455.268
1715069294355;1329.37;1531.765;1279.041;1354.665;1324.825;559.241;687.763;465.103
1715069294363;1321.211;1521.409;1270.808;1347.549;1316.182;554.658;684.746;464.879
1715069294371;1290.627;1488.142;1240.373;1313.612;1285.374;553.28;677.742;457.093
1715069294379;1290.739;1489.706;1240.931;1312.122;1285.672;521.466;650.622;426.993
1715069294387;1270.92;1469.404;1219.809;1292.899;1265.965;543.781;667.907;456.46
1715069294395;1268.35;1463.518;1218.692;1290.366;1264.438;519.268;636.652;425.838
1715069294403;1274.683;1466.684;1222.789;1296.14;1269.467;525.638;651.926;439.249
1715069294411;1251.772;1444.221;1202.933;1275.167;1244.62;541.359;659.823;451.095
1715069294419;1246.929;1437.515;1199.655;1269.765;1240.745;497.326;612.997;408.031
1715069294427;1234.785;1424.961;1186.654;1258.552;1229.644;526.123;644.96;442.266
1715069294435;1241.155;1428.574;1193.173;1262.091;1234.896;512.935;633.262;419.43
1715069294443;1228.526;1414.902;1177.9;1248.643;1222.976;497.96;621.416;412.874
1715069294451;1209.863;1396.239;1161.806;1234.561;1203.306;513.345;635.348;426.136
1715069294459;1217.276;1402.385;1171.306;1241.863;1212.359;478.514;598.17;393.912
1715069294467;1188.815;1372.881;1143.478;1212.135;1184.083;494.011;611.581;414.96
1715069294475;1205.578;1388.341;1159.757;1225.211;1201.518;492.819;608.638;405.461
1715069294483;1192.205;1376.42;1146.086;1212.917;1187.548;487.305;603.721;409.111
1715069294491;1188.219;1370.981;1143.068;1208.372;1184.121;509.88;623.055;431.091
1715069294499;1175.962;1353.92;1130.179;1195.073;1169.22;456.683;574.365;378.117
1715069294516;1136.847;1311.675;1090.542;1157.261;1130.179;474.49;590.086;396.855
1715069294524;1153.015;1328.178;1108.274;1172.908;1147.65;472.926;590.719;388.66
1715069294532;1153.015;1331.866;1109.652;1178.123;1148.321;481.866;601.262;407.957
1715069294540;1131.184;1307.651;1086.22;1153.089;1127.012;488.646;605.136;408.739
1715069294548;1143.329;1319.274;1100.786;1165.159;1139.306;457.764;578.687;373.833
1715069294556;1116.991;1291.409;1073.368;1136.884;1112.558;471.659;589.639;394.695
1715069294564;1108.088;1278.482;1064.911;1125.671;1101.643;445.656;548.326;364.035
1715069294572;1104.623;1273.006;1061.745;1123.138;1098.29;449.754;555.404;372.007
1715069294580;1077.428;1246.184;1036.413;1096.614;1071.841;457.95;557.378;378.564
1715069294588;1081.377;1250.654;1041.479;1100.078;1076.87;424.72;535.138;344.403
1715069294596;1078.881;1243.427;1035.072;1096.651;1073.889;462.271;569.001;388.063
1715069294604;1072.474;1235.046;1030.937;1090.206;1067.258;429.414;537.336;349.06
1715069294612;1058.392;1218.542;1017.749;1077.54;1052.581;427.403;537.746;353.53
1715069294620;1043.528;1204.424;1003.109;1062.416;1037.419;442.304;543.483;370.927
1715069294628;1057.126;1223.125;1020.432;1077.354;1052.804;412.315;515.953;338.294
1715069294636;1040.585;1202.3;1000.911;1060.031;1036.264;438.243;545.755;368.729
1715069294644;1034.178;1192.391;995.211;1053.624;1030.825;412.613;520.945;336.133
1715069294652;1028.553;1188.442;989.661;1048.11;1023.896;412.017;520.572;341.497
1715069294660;1012.124;1168.4;971.071;1029;1006.126;429.787;528.842;358.894
1715069294668;1005.791;1157.634;964.85;1021.81;1001.693;387.244;489.615;314.564
1715069294676;977.106;1130.216;940.636;996.962;972.562;412.837;512.451;345.036
1715069294684;1000.352;1152.977;962.541;1019.165;996.739;419.505;521.28;342.131
1715069294692;988.729;1142.025;952.519;1007.356;987.239;409.819;510.439;341.497
1715069294700;953.19;1103.319;915.341;969.73;950.731;406.988;497.736;340.268
1715069294705;969.805;1115.762;931.77;983.588;966.564;381.917;481.121;315.197
1715069294713;935.048;1084.246;896.193;953.414;929.125;390.932;486.225;328.757
1715069294721;940.561;1090.579;902.563;956.729;936.985;370.89;458.211;299.439
1715069294729;945.143;1089.089;906.4;959.448;942.126;379.719;472.553;313.446
1715069294737;932.254;1075.231;894.293;948.906;927.895;404.157;491.701;330.172
1715069294745;930.466;1072.995;894.144;947.975;928.156;366.68;458.807;293.255
1715069294753;913.143;1054.22;878.312;930.056;909.753;396.222;484.064;332.929
1715069294761;915.639;1057.424;880.696;929.944;910.088;369.884;460.856;300.705
1715069294769;910.461;1053.214;876.933;926.48;907.406;360.757;449.419;298.619
1715069294777;889.562;1029.26;854.507;905.544;885.799;374.541;456.385;310.279
1715069294785;902.303;1038.238;864.938;916.533;896.677;346.266;430.904;280.142
1715069294793;878.796;1015.551;846.498;892.878;873.469;376.515;462.346;316.612
1715069294801;882.559;1018.383;849.254;895.97;878.051;361.651;448.376;293.665
1715069294809;874.549;1006.983;841.543;889.227;869.483;356.585;443.012;293.292
1715069294817;855.14;987.165;821.687;870.675;850.558;364.073;448.152;295.676
1715069294825;864.007;995.323;828.654;878.945;858.903;334.457;422.15;267.141
1715069294833;846.758;977.889;813.939;863.373;840.5;373.758;457.987;312.142
1715069294841;838.898;967.868;806.302;852.793;833.459;344.813;431.389;281.148
1715069294849;831.969;958.554;799.224;843.815;828.616;334.941;421.479;280.105
1715069294857;818.558;947.565;787.526;831.857;814.05;353.12;427.403;295.751
1715069294865;823.289;954.047;795.2;839.271;816.882;327.751;405.721;263.862
1715069294873;802.577;932.254;774.562;817.962;797.436;354.275;425.652;296.98
1715069294881;821.315;946.298;792.295;832.9;817.031;340.901;413.284;275.634
1715069294889;816.397;938.587;785.589;828.579;812.076;329.055;409.186;272.207
1715069294895;801.235;923.425;769.98;814.684;796.095;347.197;419.579;286.326
1715069294903;803.806;926.144;776.164;816.397;799.596;313.856;388.324;250.228
1715069294911;767.112;888.035;740.103;780.039;765.286;320.412;391.901;266.731
1715069294919;762.343;883.751;733.435;772.961;758.469;294.67;362.359;233.017
1715069294927;763.833;882.67;732.765;771.619;759.4;295.192;370.629;242.628
1715069294935;776.909;892.393;745.878;785.887;774.115;346.75;416.338;290.163
1715069294943;780.448;894.479;751.838;789.911;778.846;316.352;386.126;257.269
1715069294951;741.705;854.842;712.276;749.454;738.986;325.069;396.11;273.325
1715069294959;739.843;852.272;709.593;748.485;736.155;299.141;369.81;240.766
1715069294967;732.429;845.976;704.043;742.748;728.108;304.542;374.056;249.259
1715069294975;717.528;830.889;692.68;730.641;715.367;318.065;379.235;260.1
1715069294983;733.137;847.727;708.662;747.889;731.684;286.661;357.144;231.825
1715069294991;708.289;820.905;682.436;720.136;703.931;306.889;378.117;262.931
1715069294999;700.317;811.07;674.762;709.519;697.076;277.646;344.701;223.815
1715069295007;709.37;819.489;686.236;721.402;707.88;292.696;368.357;240.281
1715069295015;698.008;806.749;675.134;711.009;694.804;316.687;381.134;260.174
1715069295023;701.211;807.27;677.034;710.599;697.896;268.705;336.207;212.006
1715069295031;678.934;785.962;655.614;690.371;675.842;284.873;353.083;240.803
1715069295039;680.35;782.385;655.39;688.843;677.109;275.485;343.993;222.102
1715069295047;677.072;775.419;651.404;684.559;673.123;279.918;340.864;228.882
1715069295055;661.425;763.275;637.285;669.211;658.408;293.888;340.603;243.485
1715069295063;670.515;770.8;645.369;679.418;666.79;273.176;331.961;217.11
1715069295071;644.55;741.37;619.739;654.235;642.017;288.039;350.55;238.568
1715069295079;626.78;722.744;601.076;634.193;626.519;241.436;299.178;184.402
1715069295083;659.265;756.904;632.107;668.056;659.488;280.365;343.509;224.188
1715069295091;665.486;762.381;640.191;673.309;663.66;315.122;374.131;258.833
1715069295099;650.249;744.946;625.7;656.322;648.797;263.564;323.765;207.573
1715069295107;614.263;708.736;589.229;623.204;610.24;279.769;334.27;231.788
1715069295115;621.751;714.697;599.362;631.884;617.281;262.484;311.807;203.215
1715069295123;627.041;718.758;604.838;637.919;623.129;267.29;328.384;213.832
1715069295131;605.956;698.976;585.131;616.61;602.901;282.042;337.884;227.094
1715069295139;600.517;693.5;578.463;611.842;597.723;251.01;310.801;194.311
1715069295147;585.02;679.158;565.276;596.978;583.045;270.717;327.49;222.735
1715069295155;581.22;674.762;561.178;592.284;578.463;233.538;280.961;182.39
1715069295163;577.83;666.119;556.484;587.516;573.173;230.26;285.767;185.817
1715069295171;567.66;654.459;545.606;576.34;563.674;247.508;301.823;199.638
1715069295179;578.351;666.939;557.154;588.037;576.004;224.225;288.3;172.071
1715069295187;561.625;651.591;540.912;574.179;557.974;255.48;313.856;208.877
1715069295195;557.527;645.034;539.124;568.591;554.286;227.317;284.165;173.785
1715069295203;544.041;628.941;524.67;557.154;540.875;215.769;273.995;171.177
1715069295211;527.203;609.718;508.13;537.969;525.638;232.235;278.987;183.657
1715069295219;538.789;623.092;520.237;548.549;535.771;204.854;252.537;157.729
1715069295227;531.711;612.81;512.563;539.571;527.874;246.391;304.058;212.193
1715069295235;524.409;605.434;504.591;532.195;520.088;219.382;278.242;176.728
1715069295243;537.485;618.435;516.959;546.873;532.679;206.009;274.74;167.377
1715069295251;529.438;609.905;511.818;537.597;524.893;239.35;302.419;195.727
1715069295259;521.019;598.84;503.138;528.209;515.319;195.317;258.163;156.425
1715069295267;499.524;577.532;480.86;509.433;495.836;209.659;272.803;184.327
1715069295271;503.473;580.512;486.895;513.531;501.052;191.778;254.363;160.709
1715069295279;503.026;578.314;484.623;513.867;501.35;189.915;258.721;162.311
1715069295287;484.772;558.794;466.257;494.532;483.431;195.429;263.751;168.085
1715069295295;484.847;558.682;466.183;493.266;482.872;163.987;238.083;136.755
1715069295303;467.785;541.583;450.872;477.359;465.81;183.88;252.426;166.818
1715069295311;474.788;546.426;458.062;483.99;471.883;172.183;235.774;153.184
1715069295319;473.41;542.924;455.789;481.978;471.435;177.585;245.31;237.785
1715069295327;462.607;530.742;444.762;470.802;461.34;188.276;250.302;352.263
1715069295335;461.899;532.307;444.949;471.137;460.52;151.061;222.772;348.091
1715069295343;443.086;509.694;422.709;451.431;442.415;170.432;241.511;386.834
1715069295351;437.088;502.542;417.456;444.576;437.535;142.492;214.986;354.685
1715069295359;426.769;494.383;410.005;433.661;427.142;134.222;210.032;353.977
1715069295367;411.198;478.625;395.589;420.176;411.905;149.57;217.482;361.279
1715069295375;412.576;478.141;395.216;421.107;413.768;119.321;192.337;327.341
1715069295383;390.895;458.919;375.77;402.294;390.522;145.51;215.136;366.643
1715069295391;411.794;478.849;399.426;424.422;411.57;145.51;211.596;357.181
1715069295399;401.177;466.406;389.516;416.338;401.437;144.094;209.101;359.565
1715069295407;379.793;445.507;368.915;392.683;380.315;155.307;211.671;369.139
1715069295415;389.479;455.491;377.111;398.457;388.436;125.952;189.99;335.649
1715069295423;352.152;414.774;340.305;361.353;349.768;126.138;189.953;346.564
1715069295431;350.401;412.241;337.064;359.304;348.426;102.11;166.036;316.501
1715069295439;380.091;440.218;365.786;390.671;378.676;134.52;201.911;354.126
1715069295447;366.643;425.838;355.467;379.235;363.402;163.503;222.214;375.994
1715069295455;352.785;412.278;341.609;362.843;348.575;105.575;166.148;313.93
1715069295472;345.483;405.312;332.296;352.971;343.248;122.041;176.579;339.448
1715069295480;344.627;404.641;333.563;352.785;341.646;108.741;157.468;316.054
1715069295488;354.238;414.588;343.397;362.545;350.736;121.221;171.438;328.422
1715069295496;340.38;402.257;329.874;347.756;335.127;136.569;176.616;337.586
1715069295504;335.649;393.949;324.771;340.678;330.806;88.885;137.649;266.284
1715069295512;318.028;374.69;306.964;324.622;313.334;110.306;157.133;175.014
1715069295520;369.698;424.683;358.075;375.845;364.557;152.737;198.819;127.33
1715069295528;341.386;397.749;331.7;349.171;334.68;139.885;187.494;108.071
1715069295536;307.076;362.955;297.576;312.813;300.594;129.975;165.068;94.324
1715069295544;315.979;371.3;306.815;322.908;310.093;93.691;127.293;55.321
1715069295552;317.357;372.082;308.603;326.671;309.944;110.976;147.521;71.861
1715069295560;315.309;368.617;304.319;320.412;308.193;82.701;115.857;29.169
1715069295568;306.219;359.565;296.682;310.615;298.582;84.229;116.9;40.047
1715069295576;299.7;353.046;290.722;302.829;293.218;111.796;142.716;62.324
1715069295584;299.29;347.272;287.741;301.451;290.088;88.774;124.052;31.143
1715069295592;269.935;316.985;259.057;274.219;260.1;107.437;141.226;56.326
1715069295600;269.003;315.495;260.212;270.344;260.808;83.931;117.198;23.656
1715069295608;279.844;328.533;272.319;282.489;270.829;88.252;121.37;33.714
1715069295616;256.151;303.946;247.359;259.057;246.093;96.671;119.694;39.414
1715069295624;264.123;311.732;253.767;267.774;253.133;70.371;96.709;14.007
1715069295632;247.397;294.596;238.642;251.941;237.785;92.126;116.006;45.449
1715069295640;260.435;303.574;250.749;265.092;252.947;90.04;116.453;32.075
1715069295648;257.157;298.21;246.13;259.802;247.732;87.209;116.602;35.986
1715069295656;237.934;279.471;230.186;239.499;228.547;97.23;116.862;44.443
1715069295662;253.357;294.708;244.454;256.486;243.112;77.635;102.967;22.24
1715069295670;221.469;263.192;211.224;223.182;211.485;83.186;103.153;36.843
1715069295678;244.081;285.245;234.991;247.024;234.209;85.086;102.893;25.555
1715069295686;241.324;281.334;231.229;244.677;230.707;87.321;115.335;32.783
1715069295694;219.084;259.206;209.138;222.921;211.559;97.454;116.155;44.182
1715069295702;230.223;272.17;221.692;236.593;223.07;76.48;96.299;22.873
1715069295710;211.745;248.328;204.63;216.067;204.63;102.334;122.264;54.501
1715069295718;211.336;248.961;204.854;215.247;205.189;76.331;92.424;18.552
1715069295726;218.488;254.698;211.485;223.145;211.336;72.457;93.542;26.375
1715069295734;218.6;254.251;209.51;220.463;212.751;92.313;111.721;45.896
1715069295742;216.477;252.09;205.487;218.786;209.957;64.932;89.034;11.586
1715069295750;190.362;224.821;181.31;195.354;183.322;89.221;109.673;43.139
1715069295758;197.403;230.558;189.99;199.936;191.256;70.594;91.568;16.093
1715069295766;187.531;218.526;178.404;189.431;181.198;62.25;84.415;15.646
1715069295774;182.241;213.571;172.183;184.998;175.834;84.005;99.54;34.012
1715069295782;200.234;231.415;192.747;201.799;195.242;61.952;82.217;11.474
1715069295790;184.961;216.886;176.355;187.68;181.012;90.748;108.145;47.125
1715069295798;172.332;202.693;162.944;174.381;167.862;79.051;97.64;26.785
1715069295806;159.256;186.041;150.427;163.019;154.339;57.258;76.778;13.635
1715069295814;140.518;168.458;131.279;143.349;134.632;49.919;60.797;6.706
1715069295822;180.379;206.791;172.257;183.135;176.84;39.078;58.748;-7.711
1715069295830;214.688;241.064;207.052;215.992;211.82;111.2;130.311;67.391
1715069295838;188.351;216.365;180.043;190.66;183.843;76.741;98.497;23.805
1715069295846;159.815;185.296;150.539;160.746;155.158;54.948;84.043;9.127
1715069295851;132.248;157.692;124.089;133.663;126.213;52.229;60.722;10.468
1715069295859;142.828;166.334;135.526;145.882;139.512;30.212;43.213;-11.139
1715069295867;134.408;157.207;126.064;135.526;131.801;61.505;77.859;25.071
1715069295875;141.375;165.328;133.589;143.088;138.208;48.317;66.496;-2.608
1715069295883;126.809;149.831;118.911;126.697;123.717;42.58;76.07;-0.745
1715069295891;94.026;114.888;84.192;94.958;90.115;33.379;43.474;-5.402
1715069295899;123.568;144.43;115.372;124.797;120.923;24.326;38.631;-24.848
1715069295907;136.867;159.256;129.23;138.804;133.514;77.449;88.885;31.218
1715069295915;142.865;164.919;136.681;142.269;139.177;49.286;54.799;-3.166
1715069295923;129.23;149.943;122.19;128.523;127.032;45.896;54.799;0.335
1715069295931;106.357;125.319;100.136;109.784;104.196;57.593;63.665;11.735
1715069295939;118.39;139.028;114.478;120.923;117.831;27.94;40.457;-20.526
1715069295947;98.459;117.756;93.43;102.93;96.895;46.529;54.315;9.462
1715069295955;102.222;117.98;95.74;105.09;98.236;28.089;35.167;-19.893
1715069295963;92.909;110.157;85.607;98.124;88.699;28.349;39.153;-13.97
1715069295971;75.81;93.468;68.545;78.976;71.824;40.196;42.133;-1.788
1715069295979;95.703;112.243;91.009;97.044;92.126;16.95;28.983;-28.051
1715069295987;91.828;110.157;89.705;96.634;92.536;61.318;65.789;23.73
1715069295995;76.033;89.407;70.482;78.008;75.325;17.248;20.824;-25.742
1715069296003;75.512;85.905;68.322;78.008;73.314;15.683;28.014;-20.489
1715069296011;80.69;93.468;74.841;83.447;78.566;45.709;45.374;10.543
1715069296019;88.885;101.142;81.547;89.929;88.289;21.756;32.559;-17.025
1715069296027;70.035;84.08;61.393;70.93;69.29;45.97;56.811;11.586
1715069296035;75.027;88.736;67.8;75.772;74.692;33.528;36.471;-5.998
1715069296040;54.464;67.204;50.478;56.215;53.011;17.211;26.04;-14.789
1715069296048;37.216;50.217;34.422;40.531;37.7;11.623;12.666;-28.387
1715069296056;73.053;86.538;69.179;76.145;72.382;9.574;16.168;-32.41
1715069296064;69.179;81.286;63.702;72.569;67.875;46.305;55.73;9.574
1715069296072;58.86;69.253;53.532;60.312;57.742;23.432;30.063;-20.713
1715069296080;47.162;61.43;44.703;50.105;46.119;11.213;17.434;-21.718
1715069296088;42.766;53.793;39.749;44.07;42.878;38.818;40.531;3.539
1715069296096;44.182;50.366;41.276;42.915;42.878;5.737;17.844;-29.84
1715069296104;22.873;28.424;18.552;23.209;20.489;-0.745;8.978;-30.957
1715069296112;58.375;66.534;53.868;60.759;57.779;9.499;14.007;-26.561
1715069296120;56.773;64.41;53.756;59.381;57.705;10.878;28.238;-16.168
1715069296128;28.796;37.7;26.673;31.143;29.691;12.368;19.819;-14.864
1715069296136;38.78;46.901;35.428;40.047;36.731;-18.775;-10.99;-47.944
1715069296144;32.41;38.408;24.885;33.639;30.436;13.337;24.512;-10.021
1715069296152;35.465;40.196;29.84;33.155;34.757;-7.786;9.611;-36.135
1715069296160;30.436;31.739;26.375;27.344;28.647;-2.459;20.154;-25.779
1715069296168;13.933;15.87;11.213;13.337;11.809;18.217;35.241;-13.076
1715069296176;28.834;32.149;25.183;30.287;29.355;-11.027;13.486;-41.053
1715069296184;11.995;17.062;9.127;14.901;12.144;11.697;34.124;-5.364
1715069296192;15.236;19.856;14.976;16.466;16.838;-6.445;6.966;-34.98
1715069296200;10.207;12.666;10.654;10.952;11.697;-5.066;7.264;-29.355
1715069296208;3.912;5.7;3.837;5.588;5.737;11.213;21.569;-13.15
1715069296216;13.97;14.38;12.591;13.97;15.423;-18.328;0.596;-44.666
1715069296224;4.508;6.743;3.129;5.998;6.407;12.182;25.928;-8.605
1715069296229;5.551;8.717;4.694;7.376;6.668;-9.947;-1.416;-36.62
1715069296237;-5.662;-5.625;-7.376;-2.682;-5.327;-15.236;-2.719;-35.428
1715069296245;-23.358;-23.022;-25.518;-20.601;-21.16;-4.992;1.602;-27.94
1715069296253;-16.689;-20.154;-20.638;-16.689;-15.423;-41.91;-27.381;-61.132
1715069296261;-6.407;-9.35;-8.792;-3.874;-5.7;12.293;23.283;-1.9
1715069296269;16.987;18.142;17.397;22.054;20.526;1.639;9.015;-20.973
1715069296277;8.196;8.605;8.233;11.027;10.021;-4.47;14.529;-20.377
1715069296285;-7.935;-11.511;-9.872;-7.972;-7.227;4.731;10.133;-15.013
1715069296293;19.707;16.242;16.131;17.285;19.819;-17.062;-12.778;-36.433
1715069296301;1.974;1.527;-0.149;1.49;2.831;-4.135;4.061;-13.97
1715069296309;12.107;11.288;11.921;10.952;12.107;-21.16;-21.979;-33.192
1715069296317;6.966;6.258;6.258;6.817;5.886;-13.821;-9.984;-24.55
1715069296325;12.107;8.792;11.362;12.89;9.909;6.706;10.021;-19.185
1715069296333;25.816;21.644;29.169;25.257;26.524;-24.699;-16.354;-51.782
1715069296341;-2.533;-5.849;-0.298;-2.943;-1.49;-13.784;-7.451;-34.943
1715069296349;35.577;33.751;36.247;34.98;35.726;-13.821;-16.54;-40.792
1715069296357;44.219;40.01;45.3;43.809;43.958;-3.725;-6.221;-22.948
1715069296365;20.713;14.342;20.75;19.036;21.197;11.958;7.674;-12.256
1715069296373;19.67;14.529;22.762;17.583;19.558;-17.248;-15.05;-45.374
1715069296381;-5.737;-15.162;-4.21;-8.643;-7.413;-5.96;-2.868;-27.269
1715069296389;-7.004;-17.881;-4.731;-10.841;-9.611;-26.263;-23.991;-51.074
1715069296397;-23.544;-31.404;-21.681;-25.257;-26.45;-39.078;-32.894;-55.656
1715069296405;-34.086;-39.302;-32.298;-35.39;-37.588;-25.406;-25.928;-50.701
1715069296413;-28.536;-33.341;-26.077;-29.132;-31.367;-42.17;-40.717;-71.339
1715069296430;-38.929;-44.741;-36.843;-39.116;-42.17;-12.07;-12.219;-32.932
1715069296438;-16.503;-25.108;-15.497;-21.085;-20.75;-20.787;-25.705;-47.311
1715069296446;-29.877;-36.545;-28.796;-33.9;-33.826;-25.034;-26.04;-48.243
1715069296454;-59.232;-66.832;-56.513;-61.691;-63.516;-21.569;-23.991;-48.652
1715069296462;-43.884;-51.409;-35.092;-45.151;-45.56;-34.161;-36.806;-64.112
1715069296470;-58.897;-67.465;-55.805;-59.605;-61.616;1.676;-2.384;-24.624
1715069296478;-63.851;-72.047;-61.169;-66.422;-67.092;-28.722;-39.451;-58.673
1715069296486;-79.237;-87.358;-76.48;-80.355;-83.335;-46.007;-49.509;-59.009
1715069296494;-90.45;-97.342;-87.284;-89.37;-94.25;-26.263;-34.906;-41.984
1715069296502;-78.343;-86.874;-73.202;-78.566;-81.509;-48.876;-53.719;-66.794
1715069296510;-97.752;-108.443;-94.958;-99.726;-99.838;-20.452;-28.461;-35.316
1715069296518;-85.384;-98.72;-84.862;-91.679;-87.209;-37.663;-49.472;-58.562
1715069296526;-90.189;-101.812;-87.656;-93.132;-93.542;-32.075;-43.437;-46.343
1715069296534;-104.42;-115.521;-101.365;-104.271;-107.065;-19.968;-35.688;-40.457
1715069296542;-93.356;-104.867;-91.009;-94.995;-93.766;-49.733;-58.636;-71.451
1715069296550;-104.643;-120.215;-106.394;-109.784;-105.91;-25.667;-32.336;-42.096
1715069296558;-97.528;-110.753;-93.989;-101.142;-98.869;-46.603;-59.232;-69.7
1715069296566;-93.617;-105.5;-88.401;-95.852;-94.734;-41.611;-49.993;-55.246
1715069296574;-101.924;-113.249;-95.703;-102.632;-99.391;-24.214;-36.359;-39.6
1715069296582;-86.315;-98.981;-82.739;-89.705;-85.272;-46.566;-51.707;-63.404
1715069296590;-97.305;-109.002;-94.436;-101.589;-97.156;-8.456;-20.713;-21.644
1715069296598;-94.809;-106.73;-92.201;-97.789;-93.803;-28.089;-42.58;-51.595
1715069296606;-101.365;-115.596;-98.497;-102.744;-101.812;-29.393;-40.531;-42.99
1715069296614;-95.591;-112.578;-95.144;-99.838;-96.746;-8.456;-23.097;-24.14
1715069296611;-87.209;-103.787;-85.011;-91.046;-87.731;-38.631;-49.099;-51.893
1715069296619;-109.524;-123.754;-106.655;-113.696;-107.214;-16.354;-36.657;-23.06
1715069296627;-101.7;-115.596;-99.204;-104.83;-100.21;-33.192;-45.821;-59.716
1715069296635;-103.489;-116.043;-98.124;-103.787;-103.749;-39.339;-42.58;-64.299
1715069296643;-117.16;-131.242;-112.28;-117.57;-116.043;-11.735;-27.455;-32.634
1715069296651;-113.77;-132.322;-109.486;-117.421;-112.355;-50.18;-72.047;-67.875
1715069296659;-132.844;-152.625;-129.491;-138.059;-132.285;-57.407;-71.935;-74.32
1715069296667;-109.039;-127.293;-105.09;-112.467;-107.996;-58.86;-73.053;-80.653
1715069296675;-107.4;-126.809;-102.334;-110.641;-106.059;-60.238;-66.794;-64.932
1715069296683;-110.418;-128.485;-105.165;-113.212;-109.747;-32.298;-40.568;-36.359
1715069296691;-107.288;-123.866;-99.912;-108.816;-106.767;-58.487;-58.189;-65.044
1715069296699;-132.546;-150.949;-125.319;-131.615;-130.534;-37.886;-36.433;-38.706
1715069296707;-126.436;-145.733;-120.55;-129.826;-125.356;-72.569;-73.686;-77.896
1715069296715;-119.656;-140.779;-115.968;-122.823;-119.209;-84.452;-85.197;-77.933
1715069296723;-106.432;-128.15;-103.153;-108.853;-104.234;-47.423;-45.411;-44.741
1715069296731;-102.669;-124.201;-98.944;-104.01;-103.191;-73.425;-59.903;-71.675
1715069296739;-129.491;-149.384;-123.344;-129.752;-129.677;-60.275;-44.592;-49.174
1715069296747;-126.66;-145.324;-118.39;-129.789;-124.797;-88.513;-76.331;-78.79
1715069296755;-129.454;-150.651;-123.009;-130.05;-127.74;-85.607;-75.027;-46.79
1715069296763;-131.093;-153.333;-126.436;-132.173;-130.124;-63.926;-59.828;79.907
1715069296771;-118.092;-140.816;-111.833;-120.55;-116.974;-85.756;-76.368;129.23
1715069296779;-150.129;-170.618;-144.355;-148.751;-150.353;-61.616;-55.209;180.751
1715069296787;-147.969;-169.389;-142.343;-147.447;-147.782;-84.005;-81.658;154.86
1715069296795;-146.441;-167.601;-140.332;-147.745;-144.988;-80.466;-74.543;162.907
1715069296804;-155.084;-177.51;-150.278;-158.288;-151.061;-74.543;-70.408;167.713
1715069296812;-140.406;-163.279;-134.185;-142.977;-137.351;-100.285;-87.954;135.265
1715069296820;-164.919;-185.892;-157.319;-164.807;-160.858;-75.251;-71.079;161.864
1715069296828;-162.162;-185.221;-155.419;-163.913;-158.548;-96.82;-93.84;135.34
1715069296836;-140.704;-166.26;-135.191;-144.057;-137.463;-66.012;-62.324;175.983
1715069296844;-153.966;-177.883;-150.204;-156.313;-151.47;-51.185;-52.34;190.139
1715069296852;-161.789;-185.482;-155.68;-163.913;-158.139;-94.138;-95.032;143.349
1715069296860;-198.968;-222.623;-190.996;-198.409;-193.603;-81.584;-86.129;161.491
1715069296868;-184.29;-205.338;-176.094;-184.216;-180.155;-85.644;-90.748;149.384
1715069296876;-147.969;-169.836;-143.871;-149.719;-142.939;-60.014;-57.258;178.59
1715069296884;-161.901;-186.6;-157.58;-164.77;-157.841;-57.966;-62.548;177.249
1715069296892;-167.899;-194.05;-162.013;-172.369;-165.813;-97.603;-94.473;133.179
1715069296900;-200.011;-226.498;-192.449;-201.762;-197.962;-89.854;-101.961;147.782
1715069296908;-187.419;-212.193;-178.851;-189.841;-183.843;-109.114;-128.709;118.315
1715069296916;-155.754;-180.118;-147.484;-158.101;-151.47;-73.686;-84.974;150.762
1715069296924;-174.828;-200.234;-167.489;-176.616;-173.151;-61.616;-75.586;156.835
1715069296932;-166.669;-192.299;-160.336;-169.836;-167.75;-91.94;-98.087;116.192
1715069296940;-187.755;-215.471;-183.098;-189.357;-188.537;-65.193;-70.855;144.243
1715069296948;-182.204;-211.149;-176.43;-186.786;-180.23;-87.06;-93.691;115.968
1715069296956;-183.731;-210.293;-177.696;-187.866;-184.067;-65.267;-77.97;148.304
1715069296964;-205.599;-231.043;-199.117;-209.622;-207.983;-67.204;-86.203;131.838
1715069296972;-175.722;-202.432;-168.234;-180.863;-176.43;-106.469;-108.369;84.527
1715069296980;-182.241;-207.312;-173.301;-185.11;-181.943;-60.834;-72.606;137.314
1715069296988;-166.818;-191.145;-158.362;-172.593;-168.681;-82.068;-96.597;108.778
1715069297009;-158.288;-185.966;-150.502;-163.615;-158.25;-80.764;-93.095;113.919
1715069297017;-179.596;-208.616;-175.163;-184.104;-181.273;-70.557;-84.341;119.694
1715069297025;-172.816;-202.097;-168.718;-177.622;-175.834;-98.124;-103.6;89.146
1715069297033;-199.489;-225.902;-192.225;-202.022;-201.464;-80.913;-96.224;111.125
1715069297041;-188.947;-216.737;-180.192;-194.87;-192.076;-101.998;-119.88;83.186
1715069297049;-185.184;-216.477;-178.814;-192.15;-189.17;-95.367;-106.432;96.597
1715069297057;-193.305;-223.704;-184.923;-199.676;-195.95;-78.753;-91.083;102.93
1715069297065;-184.625;-212.9;-176.691;-190.437;-189.021;-106.916;-114.962;72.271
1715069297073;-205.748;-235.327;-197.776;-209.548;-209.473;-80.355;-98.348;102.893
1715069297081;-197.217;-226.647;-187.717;-201.538;-199.378;-100.285;-120.364;75.959
1715069297089;-196.211;-225.492;-190.884;-204.407;-197.031;-96.224;-110.231;85.793
1715069297097;-208.579;-239.834;-203.662;-214.875;-212.64;-82.031;-105.388;93.654
1715069297105;-192.709;-225.492;-188.388;-200.383;-197.589;-104.569;-120.774;68.545
1715069297113;-209.287;-241.324;-201.799;-214.39;-211.485;-81.025;-94.324;97.267
1715069297121;-203.848;-233.576;-195.503;-209.548;-204.891;-95.405;-113.286;72.122
1715069297129;-216.626;-246.204;-208.057;-221.17;-217.743;-102.408;-116.751;74.878
1715069297137;-257.641;-285.357;-245.012;-259.541;-257.567;-113.733;-134.893;66.869
1715069297145;-249.222;-276.901;-238.94;-252.128;-249.296;-139.4;-155.27;37.551
1715069297153;-202.954;-231.788;-196.174;-207.089;-202.097;-51.968;-74.208;124.425
1715069297161;-182.576;-210.963;-173.04;-186.712;-183.098;-61.691;-90.301;106.99
1715069297169;-196.397;-225.902;-188.649;-201.873;-197.18;-84.601;-101.291;85.384
1715069297177;-211.708;-240.02;-203.997;-215.434;-212.267;-81.807;-102.11;84.266
1715069297185;-197.627;-229.403;-192.262;-206.158;-196.658;-101.812;-122.376;61.244
1715069297193;-218.265;-250.414;-209.883;-224.598;-218.116;-75.027;-98.906;93.021
1715069297198;-215.881;-245.31;-204.705;-220.91;-215.918;-90.152;-121.631;69.626
1715069297206;-220.053;-247.806;-212.416;-226.125;-219.718;-90.227;-118.278;71.824
1715069297214;-238.717;-266.582;-228.137;-241.399;-239.015;-85.384;-116.229;71.004
1715069297222;-213.757;-244.118;-204.779;-217.035;-215.508;-94.25;-118.762;56.885
1715069297230;-201.464;-233.687;-197.403;-207.61;-203.773;-50.701;-76.815;105.649
1715069297238;-215.396;-248.104;-208.244;-220.835;-217.222;-90.525;-120.886;60.946
1715069297246;-228.137;-259.206;-217.557;-231.825;-228.174;-90.562;-117.458;63.255
1715069297254;-219.345;-251.345;-210.851;-225.753;-218.302;-54.985;-85.98;89.072
1715069297262;-217.482;-248.738;-209.92;-222.847;-218.488;-90.562;-120.699;55.693
1715069297270;-251.42;-283.755;-246.167;-257.12;-252.649;-84.788;-110.12;67.502
1715069297278;-218.898;-253.171;-214.986;-228.956;-219.755;-90.376;-113.249;50.627
1715069297286;-194.87;-227.727;-188.425;-200.16;-196.77;-71.116;-93.058;69.775
1715069297294;-220.537;-254.288;-213.832;-224.561;-224.113;-67.689;-93.356;68.396
1715069297302;-216.812;-250.302;-207.126;-222.102;-220.239;-99.54;-117.458;36.433
1715069297310;-234.433;-269.935;-228.398;-240.244;-238.679;-69.03;-97.603;73.761
1715069297318;-233.762;-268.891;-228.882;-238.195;-237.003;-71.116;-106.543;66.869
1715069297326;-236.928;-267.923;-229.329;-241.101;-238.009;-61.02;-89.332;85.756
1715069297334;-241.473;-273.176;-232.644;-244.156;-244.118;-84.713;-104.308;51.185
1715069297342;-225.417;-259.168;-215.173;-229.254;-227.541;-122.711;-144.877;10.021
1715069297350;-232.272;-264.98;-223.666;-236.183;-235.997;-87.358;-117.384;50.999
1715069297358;-230.335;-262.074;-221.021;-234.023;-235.215;-100.583;-127.852;31.032
1715069297366;-237.86;-269.227;-226.386;-239.871;-242.144;-98.012;-115.409;40.01
1715069297374;-250.675;-282.526;-241.138;-253.841;-254.102;-96.15;-119.023;42.319
1715069297382;-227.168;-260.808;-217.669;-230.372;-230.409;-106.208;-127.107;28.275
1715069297395;-219.382;-253.469;-211.336;-224.113;-220.165;-45.97;-66.31;97.64
1715069297403;-224.374;-256.784;-214.539;-228.137;-225.38;-88.885;-108.704;47.125
1715069297411;-231.49;-263.304;-221.953;-233.054;-234.582;-132.62;-139.438;1.788
1715069297419;-229.627;-263.527;-220.165;-233.464;-232.495;-105.91;-116.527;28.275
1715069297427;-230.931;-263.341;-220.872;-235.327;-232.16;-127.964;-145.249;7.972
1715069297435;-245.422;-280.514;-235.178;-251.606;-244.789;-97.938;-120.662;41.425
1715069297443;-233.203;-266.321;-222.214;-236.817;-233.352;-116.751;-143.684;17.546
1715069297451;-234.395;-268.407;-225.641;-237.86;-235.438;-112.429;-136.979;25.444
1715069297459;-243.15;-279.024;-235.364;-247.322;-243.15;-95.181;-124.872;33.23
1715069297467;-231.527;-264.533;-219.792;-234.172;-231.117;-121.221;-145.92;6.333
1715069297475;-240.728;-276.081;-232.011;-243.373;-240.058;-89.332;-119.917;37.514
1715069297483;-239.387;-276.715;-232.235;-244.826;-239.983;-106.581;-146.963;6.072
1715069297491;-240.505;-277.273;-231.713;-245.087;-239.35;-96.82;-137.165;20.526
1715069297499;-250.526;-289.269;-242.144;-255.816;-250.116;-79.907;-124.983;35.428
1715069297507;-238.121;-276.23;-230.819;-241.138;-235.848;-110.008;-146.665;3.986
1715069297515;-246.316;-281.967;-234.209;-249.334;-243.15;-78.045;-121.295;36.88
1715069297523;-236.705;-272.542;-226.498;-241.101;-234.507;-90.45;-139.773;12.07
1715069297531;-249.743;-285.357;-241.324;-249.781;-246.502;-87.656;-135.377;17.174
1715069297539;-272.132;-307.634;-262.782;-274.219;-268.109;-91.158;-141.822;11.958
1715069297547;-217.929;-254.624;-207.983;-221.208;-212.565;-76.331;-121.035;24.214
1715069297555;-213.347;-249.371;-206.716;-216.626;-210.255;-31.33;-75.512;70.967
1715069297563;-229.18;-263.825;-222.102;-233.799;-226.311;-79.46;-128.336;18.03
1715069297571;-244.156;-278.13;-236.481;-246.54;-241.436;-85.384;-125.654;19.744
1715069297579;-244.714;-278.056;-236.444;-245.012;-241.771;-42.059;-86.427;49.211
1715069297589;-233.278;-266.917;-226.162;-235.96;-232.048;-61.877;-100.21;30.771
1715069297597;-244.007;-278.391;-235.848;-246.502;-241.66;-60.871;-107.735;38.706
1715069297605;-236.295;-272.393;-226.2;-238.94;-233.017;-84.676;-134.893;1.304
1715069297613;-235.066;-273.921;-228.062;-240.691;-235.811;-75.139;-117.496;12.107
1715069297621;-247.21;-285.171;-239.052;-252.761;-247.21;-67.651;-112.28;12.927
1715069297629;-222.661;-259.355;-216.03;-228.845;-222.027;-83.596;-125.617;-6.221
1715069297637;-248.551;-286.438;-241.809;-253.841;-247.583;-72.867;-117.086;10.766
1715069297645;-240.058;-276.007;-231.378;-241.362;-241.175;-89.779;-135.601;-17.323
1715069297653;-218.302;-253.841;-210.33;-218.935;-219.457;-56.997;-97.752;19.409
1715069297661;-211.149;-246.54;-202.954;-212.267;-212.64;-25.295;-69.849;46.678
1715069297669;-201.501;-236.705;-191.07;-203.587;-203.662;-50.925;-93.728;15.311
1715069297677;-224.113;-258.386;-214.316;-226.013;-226.125;-30.547;-81.509;41.835
1715069297685;-215.657;-249.743;-204.332;-217.929;-219.233;-55.06;-109.039;14.119
1715069297693;-210.74;-246.204;-201.426;-211.596;-212.751;-64.336;-115;11.064
1715069297701;-214.13;-252.761;-208.393;-218.19;-217.184;-69.216;-122.711;-5.998
1715069297709;-200.495;-237.003;-191.48;-201.017;-205.338;-86.389;-135.489;-21.42
1715069297717;-210.218;-247.173;-201.613;-211.075;-213.534;-64.485;-111.721;-2.123
1715069297725;-150.762;-189.543;-141.524;-154.115;-155.233;-41.91;-86.688;4.992
1715069297733;-144.877;-179.41;-133.365;-148.08;-149.086;-32.745;-74.394;23.022
1715069297741;-167.862;-202.879;-160.746;-174.567;-173.524;-39.004;-87.991;16.838
1715069297749;-156.276;-191.554;-148.341;-160.895;-158.772;-76.145;-120.774;-19.26
1715069297757;-170.879;-205.226;-161.529;-171.587;-171.885;-51.595;-95.107;13.784
1715069297765;-163.242;-198.707;-154.898;-164.919;-164.807;-69.775;-116.9;-12.331
1715069297773;-162.795;-201.873;-155.866;-168.085;-166.371;-70.669;-113.77;-9.947
1715069297778;-168.383;-206.94;-160.374;-174.94;-172.444;-51.372;-98.683;5.923
1715069297786;-182.39;-218.377;-170.805;-185.259;-184.439;-84.527;-131.764;-29.467
1715069297794;-201.911;-238.121;-193.194;-204.407;-202.656;-55.209;-101.328;1.341
1715069297802;-199.303;-238.94;-191.368;-207.536;-201.091;-73.053;-115.409;-21.681
1715069297810;-210.442;-248.849;-202.768;-218.824;-211.634;-73.761;-112.616;-14.082
1715069297818;-222.921;-261.851;-216.7;-230.521;-223.853;-61.281;-104.085;-7.19
1715069297826;-216.477;-256.151;-208.095;-221.394;-219.345;-81.472;-120.029;-34.049
1715069297834;-227.243;-264.272;-218.973;-230.744;-230.521;-44.554;-80.578;8.494
1715069297842;-218.19;-253.618;-208.616;-223.592;-219.159;-46.864;-87.47;-0.745
1715069297850;-230.707;-269.972;-223.666;-236.37;-232.644;-41.611;-86.501;13.188
1715069297858;-246.577;-285.245;-240.095;-253.543;-249.11;-91.083;-131.875;-40.308
1715069297866;-225.715;-262.372;-219.382;-230.409;-228.919;-87.656;-122.599;-43.586
1715069297874;-231.564;-269.972;-226.311;-238.009;-234.134;-45.486;-82.329;-1.341
1715069297882;-235.14;-274.293;-226.833;-243.224;-235.625;-83.447;-128.411;-42.096
1715069297890;-243.448;-282.638;-235.625;-250.377;-246.204;-84.639;-126.995;-36.955
1715069297898;-248.551;-284.649;-239.648;-253.841;-249.52;-72.531;-118.278;-23.618
1715069297906;-230.819;-267.252;-222.474;-236.817;-232.644;-93.17;-129.566;-44.145
1715069297914;-247.732;-286.587;-240.728;-250.861;-252.128;-59.642;-98.795;-9.835
1715069297922;-238.232;-278.316;-229.813;-243.634;-238.456;-76.666;-122.562;-37.514
1715069297930;-250.563;-286.363;-239.983;-253.655;-250.675;-81.807;-121.854;-34.608
1715069297938;-268.929;-306.144;-258.088;-272.393;-268.966;-79.758;-119.545;-32.82
1715069297946;-248.44;-283.085;-238.642;-251.532;-247.21;-99.391;-134.781;-51.521
1715069297954;-246.13;-282.712;-237.152;-248.514;-245.05;-56.587;-90.487;-3.874
1715069297962;-239.499;-278.167;-231.825;-243.857;-238.456;-76.033;-112.541;-34.533
1715069297967;-244.379;-281.036;-233.762;-245.72;-242.107;-78.157;-116.192;-30.361
1715069297975;-255.592;-292.882;-243.485;-257.939;-255.071;-62.436;-106.879;-20.452
1715069297983;-239.834;-277.013;-227.094;-244.528;-238.679;-78.38;-117.235;-40.457
1715069297991;-261.441;-296.645;-251.792;-265.911;-260.547;-64.112;-103.042;-16.391
1715069297999;-267.141;-303.537;-255.182;-271.313;-266.321;-94.473;-130.348;-51.409
1715069298007;-256.151;-295.974;-247.173;-262.484;-254.847;-80.168;-116.415;-30.622
1715069298015;-240.132;-280.403;-232.942;-245.31;-238.158;-44.927;-92.313;-5.923
1715069298023;-215.918;-253.618;-209.101;-220.761;-213.31;-42.766;-82.59;-7.6
1715069298031;-251.718;-287.741;-245.906;-256.188;-249.52;-37.625;-75.959;8.27
1715069298039;-252.537;-293.516;-246.316;-258.721;-248.849;-97.305;-142.977;-53.532
1715069298047;-233.538;-270.866;-224.113;-238.828;-230.595;-80.764;-123.27;-33.043
1715069298055;-228.658;-267.588;-218.302;-235.848;-225.79;-60.722;-101.849;-22.426
1715069298063;-209.287;-247.546;-199.489;-216.253;-204.816;-74.878;-115.559;-39.972
1715069298071;-228.547;-267.625;-221.58;-234.842;-225.306;-49.77;-85.495;-9.649
1715069298079;-226.013;-266.694;-218.339;-233.613;-223.257;-75.288;-107.624;-39.488
1715069298087;-240.467;-280.328;-231.676;-245.944;-237.413;-92.126;-127.926;-53.756
1715069298095;-245.497;-285.916;-236.779;-250.489;-242.814;-78.529;-118.874;-44.182
1715069298103;-213.087;-254.847;-204.146;-221.916;-209.697;-78.753;-115.968;-48.615
1715069298111;-222.735;-263.378;-214.055;-228.845;-220.09;-38.072;-78.678;-8.68
1715069298119;-245.72;-285.059;-239.462;-251.42;-244.863;-78.976;-112.355;-54.799
1715069298127;-218.414;-256.673;-214.092;-224.859;-217.743;-65.975;-94.064;-35.018
1715069298135;-186.041;-226.647;-179.969;-193.529;-184.737;-35.204;-71.414;-1.9
1715069298143;-206.009;-245.571;-197.254;-212.267;-203.401;-84.266;-116.602;-55.283
1715069298151;-229.068;-267.103;-220.127;-233.576;-226.945;-58.971;-94.92;-31.851
1715069298157;-225.604;-264.831;-216.812;-230.297;-225.864;-75.139;-117.756;-56.55
1715069298165;-224.859;-264.011;-216.961;-228.472;-225.902;-68.098;-111.461;-43.251
1715069298173;-235.364;-276.677;-228.807;-239.797;-234.954;-63.404;-111.274;-36.992
1715069298181;-229.143;-268.184;-218.637;-234.358;-228.956;-93.579;-134.856;-62.399
1715069298189;-244.528;-282.042;-235.14;-249.892;-245.869;-58.562;-99.093;-26.003
1715069298197;-234.47;-273.809;-227.205;-238.791;-234.842;-73.239;-113.77;-49.844
1715069298205;-234.097;-274.479;-226.758;-240.02;-235.587;-67.763;-104.755;-39.004
1715069298213;-243.857;-284.053;-235.289;-249.334;-243.522;-63.218;-112.392;-34.757
1715069298221;-237.599;-276.044;-229.217;-240.579;-237.711;-98.124;-146.292;-65.379
1715069298229;-244.603;-281.259;-234.097;-247.471;-244.789;-65.304;-110.865;-29.057
1715069298237;-228.956;-267.103;-219.308;-233.427;-230.111;-76.592;-119.545;-51.185
1715069298245;-241.734;-279.583;-233.054;-244.64;-241.771;-77.374;-112.019;-46.678
1715069298253;-255.89;-295.043;-247.881;-258.088;-254.735;-65.453;-102.408;-40.68
1715069298261;-234.395;-273.101;-226.349;-237.413;-233.538;-93.915;-132.807;-66.981
1715069298269;-231.415;-267.066;-220.984;-232.346;-231.601;-51.67;-93.877;-19.819
1715069298277;-222.661;-260.696;-213.273;-225.082;-221.767;-66.459;-109.635;-46.678
1715069298285;-226.572;-265.278;-218.786;-229.85;-223.927;-71.898;-119.805;-41.91
1715069298293;-242.74;-281.297;-235.885;-249.147;-240.207;-65.267;-116.602;-39.786
1715069298301;-234.768;-272.617;-228.137;-239.722;-233.017;-85.421;-131.465;-63.777
1715069298309;-239.313;-277.683;-230.558;-241.362;-237.077;-53.532;-97.975;-26.561
1715069298317;-234.284;-274.703;-223.406;-237.45;-231.974;-82.925;-123.903;-62.287
1715069298325;-227.243;-266.694;-218.451;-231.899;-224.486;-77.933;-108.108;-49.174
1715069298333;-236.407;-272.43;-224.076;-238.754;-232.086;-62.138;-99.391;-41.015
1715069298341;-234.433;-271.35;-223.964;-236.817;-233.576;-87.88;-125.132;-72.792
1715069298351;-260.398;-296.757;-252.91;-262.372;-260.472;-74.059;-109.188;-53.644
1715069298359;-220.276;-259.243;-215.247;-223.964;-219.606;-62.361;-100.434;-49.807
1715069298367;-215.098;-254.959;-205.785;-216.961;-213.385;-59.567;-95.069;-41.872
1715069298375;-243.597;-281.632;-234.358;-244.267;-240.393;-68.396;-110.567;-55.879
1715069298383;-223.07;-261.851;-213.72;-225.194;-219.233;-80.243;-117.421;-64.895
1715069298391;-221.916;-260.398;-212.751;-224.225;-216.626;-45.411;-88.401;-24.997
1715069298399;-211.112;-247.099;-201.538;-215.62;-207.573;-67.949;-110.343;-58.86
1715069298407;-210.144;-244.416;-198.483;-212.379;-208.095;-63.479;-96.56;-54.203
1715069298415;-207.908;-246.093;-199.676;-209.92;-205.934;-48.466;-89.407;-43.027
1715069298423;-195.727;-233.538;-187.382;-198.372;-193.715;-67.689;-111.125;-65.453
1715069298431;-207.461;-243.671;-199.825;-210.255;-205.04;-33.267;-75.921;-17.025
1715069298439;-220.09;-255.89;-211.969;-221.916;-215.955;-74.916;-119.135;-68.881
1715069298447;-224.039;-263.043;-215.21;-228.658;-219.904;-75.735;-112.28;-66.608
1715069298455;-236.258;-273.548;-226.796;-241.213;-231.899;-67.651;-105.314;-61.244
1715069298463;-233.874;-270.307;-225.045;-238.605;-226.647;-102.334;-137.016;-95.74
1715069298471;-247.695;-284.873;-238.158;-249.632;-241.809;-65.64;-106.096;-52.191
1715069298479;-220.835;-259.429;-212.453;-224.598;-216.737;-65.342;-99.95;-58.152
1715069298487;-202.581;-239.499;-192.449;-205.785;-197.366;-63.553;-90.301;-48.503
1715069298495;-203.475;-239.722;-193.007;-207.499;-195.988;-52.042;-87.731;-42.543
1715069298503;-197.068;-233.352;-188.127;-201.538;-189.953;-82.478;-108.071;-79.088
1715069298511;-213.645;-248.849;-204.034;-216.179;-208.095;-53.905;-77.523;-47.348
1715069298519;-206.903;-244.118;-197.589;-210.591;-202.432;-73.5;-102.408;-78.268
1715069298527;-205.375;-243.373;-197.701;-210.777;-199.452;-67.726;-90.711;-67.838
1715069298535;-220.872;-261.143;-214.763;-227.354;-216.03;-57.817;-91.866;-57.667
1715069298541;-211.447;-249.93;-202.246;-214.763;-206.493;-89.146;-120.513;-91.195
1715069298549;-219.159;-255.257;-208.989;-221.357;-212.342;-59.865;-92.909;-59.642
1715069298557;-202.395;-238.977;-193.231;-205.003;-197.068;-76.108;-104.755;-86.166
1715069298565;-209.883;-247.546;-200.868;-213.422;-205.04;-80.317;-107.512;-78.343
1715069298573;-220.127;-258.87;-211.559;-226.311;-213.385;-65.118;-100.844;-62.51
1715069298581;-213.981;-251.122;-205.86;-219.159;-208.057;-93.84;-128.597;-92.275
1715069298589;-230.67;-268.556;-221.208;-233.985;-224.747;-72.345;-108.89;-73.984
1715069298597;-209.473;-246.726;-197.962;-212.267;-203.55;-77.449;-114.404;-86.501
1715069298605;-211.149;-248.849;-203.438;-217.333;-207.461;-73.351;-101.663;-74.059
1715069298613;-217.669;-255.48;-209.473;-221.357;-213.347;-60.834;-95.479;-66.757
1715069298621;-206.903;-241.548;-196.77;-209.585;-201.538;-88.438;-121.482;-92.983
1715069298629;-210.516;-247.471;-200.905;-215.285;-205.599;-48.913;-86.464;-52.825
1715069298637;-209.175;-245.72;-198.372;-214.204;-206.53;-69.626;-102.818;-83.931
1715069298645;-214.875;-249.296;-204.444;-217.371;-211.745;-66.273;-93.356;-72.271
1715069298653;-221.245;-255.294;-212.565;-223.257;-217.557;-54.277;-89.332;-64.671
1715069298661;-204.965;-238.605;-194.572;-205.971;-200.421;-73.314;-104.718;-86.874
1715069298669;-227.951;-264.943;-217.669;-231.005;-224.113;-60.163;-100.322;-65.751
1715069298677;-210.777;-246.651;-202.693;-215.21;-208.765;-83.894;-120.588;-98.944
1715069298685;-200.756;-237.338;-192.784;-204.109;-198.968;-65.416;-95.256;-79.572
1715069298693;-197.105;-233.985;-188.909;-199.862;-194.199;-53.197;-84.117;-70.035
1715069298701;-195.801;-231.713;-185.37;-198.781;-194.013;-90.376;-116.713;-107.586
1715069298709;-204.183;-240.095;-196.025;-206.94;-202.619;-50.701;-71.153;-66.757
1715069298717;-199.564;-233.427;-190.437;-202.879;-196.621;-78.343;-90.748;-98.832
1715069298725;-210.553;-248.216;-201.65;-214.055;-207.722;-82.105;-111.312;-92.089
1715069298729;-206.605;-244.342;-197.813;-211;-203.96;-50.18;-93.84;-64.634
1715069298737;-187.568;-222.176;-176.243;-192.411;-184.104;-60.461;-96.187;-74.133
1715069298745;-216.7;-250.004;-206.232;-219.457;-212.714;-40.159;-76.48;-49.137
1715069298753;-212.9;-247.769;-200.868;-213.943;-206.94;-61.02;-97.901;-79.647
1715069298761;-218.041;-251.047;-204.556;-217.147;-212.491;-72.122;-102.706;-82.85
1715069298769;-230.707;-262.26;-217.073;-231.08;-225.306;-61.467;-99.055;-71.861
1715069298777;-211.82;-244.23;-198.632;-215.806;-205.785;-89.854;-125.17;-94.92
1715069298785;-233.687;-266.694;-222.139;-237.338;-227.019;-76.331;-118.203;-76.406
1715069298793;-202.768;-237.376;-192.784;-206.307;-198.819;-66.012;-109.375;-79.162
1715069298801;-200.942;-234.805;-191.405;-205.971;-198.185;-53.942;-94.548;-62.808
1715069298809;-219.457;-253.245;-208.318;-221.096;-214.8;-51.968;-94.511;-66.683
1715069298817;-207.35;-240.989;-196.621;-208.914;-203.14;-89.258;-125.468;-104.234
1715069298825;-217.594;-252.463;-208.132;-223.294;-214.465;-57.705;-97.901;-70.296
1715069298833;-207.201;-244.528;-198.372;-217.408;-203.401;-77.002;-116.229;-102.408
1715069298841;-216.7;-249.483;-205.263;-221.99;-210.702;-73.127;-114.031;-88.662
1715069298849;-233.203;-267.141;-221.021;-235.401;-228.919;-58.338;-106.432;-79.274
1715069298857;-211.336;-243.969;-198.185;-212.677;-206.716;-81.398;-122.674;-101.998
1715069298865;-222.251;-256.076;-211.149;-227.354;-217.818;-49.77;-91.009;-62.585
1715069298873;-221.841;-257.418;-212.118;-228.137;-216.402;-74.841;-118.315;-93.132
1715069298881;-210.926;-245.31;-199.899;-214.204;-206.269;-77.635;-117.235;-88.364
1715069298889;-212.491;-245.944;-201.054;-214.502;-207.238;-62.436;-109.747;-81.584
1715069298897;-201.724;-232.197;-190.251;-203.662;-196.844;-84.676;-124.089;-105.277
1715069298905;-228.174;-255.369;-216.439;-229.962;-222.884;-56.55;-99.801;-69.737
1715069298913;-220.202;-248.328;-204.593;-219.122;-214.092;-74.841;-117.011;-96.82
1715069298918;-202.321;-236.258;-188.723;-206.083;-196.546;-86.091;-110.604;-101.7
